timestamps,TP9,AF7,AF8,TP10,Right AUX
1568081220.255,42.480,27.832,37.598,57.129,33.203
1568081220.259,44.922,26.367,42.480,28.320,34.668
1568081220.263,33.203,25.879,40.039,45.410,55.664
1568081220.267,31.250,27.832,41.992,78.125,52.734
1568081220.271,37.598,25.879,43.457,66.406,30.273
1568081220.274,36.621,25.391,32.715,25.391,24.414
1568081220.278,32.227,26.367,26.855,21.484,24.902
1568081220.282,27.344,24.414,27.832,53.223,22.949
1568081220.286,25.879,28.320,24.414,55.664,39.551
1568081220.290,34.180,31.738,26.367,19.043,1.953
1568081220.294,37.598,28.809,27.344,9.766,-39.551
1568081220.298,32.715,27.344,24.414,43.945,10.742
1568081220.302,38.574,31.250,21.484,57.617,51.270
1568081220.306,44.922,32.227,19.043,21.973,34.180
1568081220.310,43.945,31.250,24.414,3.906,-32.715
1568081220.314,37.109,34.668,27.344,36.133,-23.438
1568081220.317,28.809,33.203,26.855,56.641,24.902
1568081220.321,25.879,26.367,28.320,31.738,43.457
1568081220.325,28.809,22.949,30.762,10.254,47.363
1568081220.329,21.484,18.066,36.133,26.367,6.836
1568081220.333,23.438,18.066,33.691,53.711,-5.371
1568081220.337,31.738,22.949,32.227,50.781,62.988
1568081220.341,35.645,22.949,34.668,20.508,43.457
1568081220.345,39.551,29.297,33.203,20.996,-3.418
1568081220.349,40.039,32.227,35.156,57.129,30.762
1568081220.353,43.457,29.297,35.156,70.801,-47.852
1568081220.357,42.480,24.902,30.273,35.156,-29.785
1568081220.360,39.062,24.414,33.691,20.020,48.828
1568081220.364,39.551,28.320,32.227,51.270,55.664
1568081220.368,42.969,28.809,26.367,63.965,53.223
1568081220.372,39.062,28.320,23.438,31.250,11.230
1568081220.376,38.574,26.855,26.367,7.812,-3.418
1568081220.380,37.109,28.320,33.691,31.250,-0.488
1568081220.384,36.621,33.691,36.621,58.594,53.711
1568081220.388,47.852,36.133,31.250,42.480,62.500
1568081220.392,54.688,33.691,27.832,11.719,-14.648
1568081220.396,53.223,34.180,31.250,22.949,-20.996
1568081220.399,48.828,35.645,32.715,55.664,0.488
1568081220.403,51.270,34.180,29.785,54.199,-13.672
1568081220.407,54.688,31.250,30.273,21.973,-21.973
1568081220.411,49.805,27.832,26.367,20.020,21.973
1568081220.415,40.039,27.344,25.391,54.199,93.750
1568081220.419,32.715,28.809,28.320,56.641,68.848
1568081220.423,36.133,31.250,26.855,22.461,1.953
1568081220.427,38.086,33.203,29.297,10.254,18.555
1568081220.431,32.715,33.203,35.645,41.504,72.754
1568081220.435,35.645,33.691,33.691,63.965,27.344
1568081220.439,35.645,31.250,25.879,32.227,-21.484
1568081220.442,34.668,28.320,23.926,4.395,10.254
1568081220.446,32.715,23.926,27.832,29.297,75.684
1568081220.450,28.320,24.902,30.762,60.547,83.984
1568081220.454,37.109,32.715,30.762,46.387,60.547
1568081220.458,41.504,32.227,27.832,11.719,53.711
1568081220.462,32.715,29.297,25.879,20.508,9.766
1568081220.466,31.738,33.691,28.320,56.641,-7.324
1568081220.470,35.645,34.180,28.320,53.223,25.879
1568081220.474,34.668,24.414,23.926,15.137,10.254
1568081220.478,32.715,24.414,23.926,14.648,14.648
1568081220.482,25.391,27.344,32.227,51.758,92.285
1568081220.485,26.855,26.367,34.180,58.105,89.355
1568081220.489,31.250,29.297,28.320,24.414,33.203
1568081220.493,34.668,32.227,26.855,13.672,24.414
1568081220.497,32.227,33.203,29.785,44.434,43.457
1568081220.501,33.203,34.668,35.156,65.430,49.805
1568081220.505,41.016,33.203,40.039,41.992,21.484
1568081220.509,35.645,28.320,33.203,13.672,43.945
1568081220.513,30.762,23.926,27.344,31.250,47.852
1568081220.517,35.156,23.438,26.855,61.523,13.184
1568081220.521,32.715,21.973,20.996,42.480,73.730
1568081220.524,38.086,24.902,19.531,8.301,53.711
1568081220.528,34.668,31.738,20.508,17.090,-17.578
1568081220.532,27.832,31.738,22.949,47.852,-8.789
1568081220.536,33.691,28.320,26.855,46.875,6.348
1568081220.540,38.574,29.785,23.926,14.160,39.551
1568081220.544,32.227,28.809,25.879,9.277,87.402
1568081220.548,20.508,28.809,32.715,45.410,80.566
1568081220.552,24.902,26.367,34.180,61.523,78.125
1568081220.556,33.203,23.926,32.715,30.273,25.879
1568081220.560,37.598,30.273,32.715,15.137,-20.020
1568081220.564,37.598,31.738,32.715,40.527,-33.691
1568081220.567,36.133,25.879,26.367,59.570,3.906
1568081220.571,41.016,25.391,27.344,38.574,39.551
1568081220.575,44.434,28.320,30.273,1.953,-20.020
1568081220.579,41.504,33.691,28.809,18.555,36.621
1568081220.583,42.969,33.691,34.180,60.059,41.504
1568081220.587,48.828,32.227,34.180,51.270,-24.414
1568081220.591,52.246,29.297,23.926,9.277,62.988
1568081220.595,48.828,29.297,21.973,9.277,71.777
1568081220.599,42.480,29.297,25.879,44.434,51.270
1568081220.603,49.316,29.785,29.785,52.246,96.680
1568081220.607,55.176,33.203,28.320,23.926,79.590
1568081220.610,50.293,30.273,24.902,14.648,32.227
1568081220.614,46.387,30.273,28.320,41.992,47.852
1568081220.618,46.387,34.180,27.832,55.176,41.504
1568081220.622,37.598,33.203,26.367,20.996,-50.293
1568081220.626,30.762,29.297,26.367,-4.883,-37.109
1568081220.630,27.832,26.855,25.879,20.508,46.875
1568081220.634,27.832,26.855,26.855,43.457,45.898
1568081220.638,33.691,28.320,29.297,24.902,-2.441
1568081220.642,34.180,25.879,24.902,-2.441,38.086
1568081220.646,40.527,23.438,23.926,14.160,79.590
1568081220.649,47.852,28.809,29.297,49.316,1.953
1568081220.653,46.875,31.738,30.762,47.363,8.789
1568081220.657,45.410,28.809,26.855,13.672,57.617
1568081220.661,43.457,29.785,21.973,7.812,27.344
1568081220.665,38.574,27.344,20.996,41.016,20.020
1568081220.669,43.457,28.809,22.949,49.316,25.391
1568081220.673,48.828,36.133,22.461,9.277,-16.602
1568081220.677,47.852,35.156,23.926,0.488,3.906
1568081220.681,48.340,33.691,28.809,37.109,53.223
1568081220.685,41.992,31.738,29.785,52.734,21.973
1568081220.689,42.969,28.809,31.738,26.367,32.715
1568081220.692,48.340,29.297,36.621,5.859,25.879
1568081220.696,45.898,34.668,38.086,31.738,21.973
1568081220.700,43.457,30.273,34.668,59.082,44.922
1568081220.704,42.969,28.809,31.250,35.156,27.344
1568081220.708,47.852,30.762,25.391,5.371,20.996
1568081220.712,48.340,27.832,24.414,21.973,10.254
1568081220.716,43.945,31.250,30.273,52.246,-20.020
1568081220.720,48.340,34.668,28.320,47.852,27.832
1568081220.724,37.109,33.203,25.879,11.719,52.734
1568081220.728,33.203,33.203,31.250,10.254,55.664
1568081220.732,40.039,34.180,33.203,45.898,56.152
1568081220.735,34.668,31.250,32.227,53.711,35.645
1568081220.739,39.062,25.879,30.762,19.043,8.789
1568081220.743,39.062,23.926,24.902,6.836,21.973
1568081220.747,36.133,22.461,26.367,40.039,46.387
1568081220.751,39.551,23.438,30.273,61.035,28.320
1568081220.755,42.480,27.832,30.762,31.250,5.859
1568081220.759,48.828,31.250,34.180,5.859,-4.395
1568081220.763,46.387,30.273,31.250,30.273,-49.805
1568081220.767,40.527,26.855,26.855,59.570,-36.133
1568081220.771,42.480,25.879,25.391,47.363,-3.906
1568081220.774,47.363,22.949,24.414,13.672,8.789
1568081220.778,49.805,19.043,25.391,20.020,-9.277
1568081220.782,49.805,22.461,31.250,58.594,-1.465
1568081220.786,50.293,27.344,32.227,64.453,15.137
1568081220.790,48.340,24.414,22.461,25.879,-0.488
1568081220.794,45.410,22.949,19.531,19.043,19.531
1568081220.798,39.062,28.320,24.414,51.758,38.086
1568081220.802,35.645,29.297,26.367,61.523,2.930
1568081220.806,37.109,24.414,30.273,26.367,27.344
1568081220.810,37.109,21.973,30.762,2.930,30.273
1568081220.814,25.879,20.508,30.273,30.273,78.125
1568081220.817,24.414,23.926,35.156,55.176,99.121
1568081220.821,33.203,27.832,34.668,32.227,-2.930
1568081220.825,27.832,29.297,28.320,6.836,-11.719
1568081220.829,24.414,26.855,23.926,26.367,37.598
1568081220.833,26.367,23.926,24.902,59.082,65.918
1568081220.837,30.273,26.855,23.438,45.410,65.430
1568081220.841,35.156,28.320,26.367,14.648,85.449
1568081220.845,36.133,24.902,32.715,18.555,124.023
1568081220.849,27.344,21.484,28.809,47.363,62.012
1568081220.853,25.391,23.438,27.832,55.664,57.129
1568081220.857,33.203,30.273,25.879,21.973,62.012
1568081220.860,30.273,30.762,22.461,10.254,14.648
1568081220.864,33.203,33.691,31.738,43.457,20.020
1568081220.868,40.527,40.527,37.598,62.012,45.898
1568081220.872,39.551,39.062,33.203,34.668,1.465
1568081220.876,36.133,34.180,26.855,7.812,-7.324
1568081220.880,31.738,34.668,25.391,29.297,38.574
1568081220.884,28.809,34.180,28.320,53.711,62.988
1568081220.888,27.344,28.320,27.832,27.832,19.531
1568081220.892,20.996,26.855,26.367,-0.977,43.945
1568081220.896,20.020,27.832,33.203,17.090,46.875
1568081220.899,19.531,27.832,36.133,50.781,-20.020
1568081220.903,19.043,27.832,27.832,39.062,-20.508
1568081220.907,8.789,25.879,20.996,-0.977,5.859
1568081220.911,3.418,23.926,23.438,6.348,-1.465
1568081220.915,14.160,24.414,30.762,47.363,-5.859
1568081220.919,19.531,30.273,34.668,49.805,-24.414
1568081220.923,28.809,31.250,36.133,12.207,44.434
1568081220.927,40.039,32.227,41.504,13.672,35.645
1568081220.931,39.062,34.180,42.480,57.617,-43.457
1568081220.935,38.574,30.273,38.086,74.219,-41.992
1568081220.939,45.898,26.855,32.227,43.945,20.020
1568081220.942,52.246,28.320,27.832,23.926,32.715
1568081220.946,45.898,26.367,25.879,46.387,-19.043
1568081220.950,47.363,29.785,30.762,76.660,-17.578
1568081220.954,48.340,35.156,32.227,60.059,49.316
1568081220.958,44.922,32.715,30.273,25.879,94.238
1568081220.962,42.969,29.297,33.691,39.551,69.824
1568081220.966,38.574,31.738,34.668,68.359,74.219
1568081220.970,41.504,33.203,34.180,61.523,61.035
1568081220.974,41.016,29.785,32.715,24.902,52.734
1568081220.978,33.691,30.762,30.273,19.531,64.941
1568081220.982,24.414,26.855,33.203,45.898,80.078
1568081220.985,25.879,26.855,26.855,56.152,23.438
1568081220.989,64.453,37.109,19.531,54.199,4.883
1568081220.993,83.984,34.668,35.156,55.664,2.930
1568081220.997,30.762,22.949,41.992,50.293,-21.973
1568081221.001,1.465,17.090,37.109,45.410,55.664
1568081221.005,9.277,8.301,44.922,17.090,40.039
1568081221.009,7.812,2.930,57.129,-7.812,-2.930
1568081221.013,7.324,-3.418,64.941,16.113,62.012
1568081221.017,3.418,-11.719,72.754,45.898,99.121
1568081221.021,-2.441,-17.578,75.684,24.902,30.273
1568081221.024,2.441,-26.367,77.637,-2.930,45.898
1568081221.028,-8.301,-31.250,78.613,1.953,73.730
1568081221.032,-11.230,-33.691,80.566,37.109,82.031
1568081221.036,-2.441,-41.016,85.938,48.828,49.805
1568081221.040,-9.766,-45.410,88.867,2.441,29.785
1568081221.044,1.465,-47.852,93.750,5.859,100.586
1568081221.048,-4.883,-48.828,103.027,46.875,59.082
1568081221.052,-11.719,-47.852,109.863,58.594,-9.766
1568081221.056,3.906,-47.363,117.676,34.180,3.418
1568081221.060,4.395,-48.828,121.094,15.137,7.324
1568081221.064,0.488,-48.828,119.629,48.828,-14.648
1568081221.067,-6.836,-54.199,118.652,69.824,-25.391
1568081221.071,-12.207,-60.547,116.699,43.457,31.738
1568081221.075,5.371,-56.152,121.094,23.926,101.074
1568081221.079,0.000,-54.199,134.766,49.805,40.039
1568081221.083,-11.719,-53.223,133.789,81.543,-31.738
1568081221.087,12.695,-49.316,128.906,71.289,3.418
1568081221.091,24.414,-49.316,127.930,41.504,0.000
1568081221.095,19.531,-49.805,125.488,55.176,-23.926
1568081221.099,12.207,-49.316,121.094,83.008,8.789
1568081221.103,7.324,-45.410,114.746,80.566,42.969
1568081221.107,18.066,-40.527,117.188,55.664,38.574
1568081221.110,35.156,-38.086,125.000,59.082,12.695
1568081221.114,35.645,-38.086,126.953,92.773,9.766
1568081221.118,31.250,-40.039,120.605,99.609,8.301
1568081221.122,38.086,-33.691,110.352,65.918,1.465
1568081221.126,35.645,-27.344,101.562,42.969,-18.066
1568081221.130,32.227,-24.902,102.051,74.219,41.016
1568081221.134,41.504,-18.555,102.539,96.191,110.840
1568081221.138,39.551,-18.066,98.145,68.848,83.496
1568081221.142,44.922,-19.043,94.238,41.992,13.672
1568081221.146,46.387,-16.113,85.449,58.105,40.527
1568081221.149,42.480,-14.648,80.078,98.145,65.918
1568081221.153,42.969,-12.207,75.684,90.332,19.043
1568081221.157,46.875,-6.348,68.359,52.246,27.832
1568081221.161,49.805,-2.441,66.406,56.152,38.574
1568081221.165,43.457,-0.488,70.801,84.473,30.762
1568081221.169,36.133,0.000,74.219,83.008,41.016
1568081221.173,46.875,4.395,76.660,55.176,60.059
1568081221.177,45.898,4.883,74.707,45.410,47.852
1568081221.181,41.504,4.883,69.824,72.754,3.906
1568081221.185,50.293,9.766,64.941,94.238,-20.996
1568081221.189,55.664,10.254,58.594,64.453,-6.836
1568081221.192,62.500,11.230,58.105,40.527,12.207
1568081221.196,52.246,14.648,61.035,62.012,21.973
1568081221.200,46.387,16.602,62.012,83.984,42.480
1568081221.204,55.664,16.602,62.012,63.477,50.781
1568081221.208,58.105,17.090,57.617,27.344,-4.883
1568081221.212,53.711,19.043,54.688,42.480,43.945
1568081221.216,50.293,21.484,54.688,74.219,95.215
1568081221.220,46.875,20.508,52.246,67.383,26.855
1568081221.224,42.969,17.090,47.852,32.227,-5.859
1568081221.228,39.551,17.090,49.805,28.320,27.344
1568081221.232,29.785,17.578,56.152,65.918,-8.301
1568081221.235,39.062,18.066,56.641,72.754,0.488
1568081221.239,42.969,24.902,56.152,36.133,31.738
1568081221.243,39.551,32.227,57.617,29.785,62.988
1568081221.247,43.945,34.180,57.617,61.035,6.348
1568081221.251,46.387,28.809,56.152,79.590,11.719
1568081221.255,50.293,21.484,48.828,46.387,65.430
1568081221.259,48.340,22.949,44.434,20.996,0.977
1568081221.263,40.039,27.344,45.410,50.293,-23.926
1568081221.267,37.109,26.855,40.527,75.195,21.973
1568081221.271,38.086,23.926,33.203,53.711,58.594
1568081221.274,40.527,26.855,28.320,18.555,12.695
1568081221.278,41.016,31.738,29.297,24.414,-43.457
1568081221.282,34.180,27.832,39.551,57.617,10.254
1568081221.286,36.133,25.879,44.922,53.711,30.273
1568081221.290,40.527,30.273,42.969,9.766,42.969
1568081221.294,37.598,26.367,43.945,0.000,33.691
1568081221.298,41.992,26.855,49.805,39.551,-1.953
1568081221.302,46.387,30.762,49.805,54.199,53.223
1568081221.306,50.781,30.273,37.598,18.066,13.672
1568081221.310,39.062,28.809,28.320,-1.465,13.672
1568081221.314,25.391,24.902,30.762,33.691,86.914
1568081221.317,35.645,26.855,30.273,68.848,7.812
1568081221.321,37.109,30.762,30.273,41.992,-5.859
1568081221.325,40.039,29.297,37.109,15.137,52.734
1568081221.329,36.621,26.855,34.668,43.457,11.230
1568081221.333,28.809,28.809,32.227,68.359,26.855
1568081221.337,26.855,30.762,37.109,51.270,26.367
1568081221.341,33.203,27.832,37.109,17.090,22.949
1568081221.345,28.320,25.879,35.645,19.531,12.207
1568081221.349,20.996,26.367,37.598,53.223,28.809
1568081221.353,34.668,28.809,41.016,53.711,38.574
1568081221.357,36.621,30.762,40.527,17.090,-9.766
1568081221.360,32.715,28.809,39.062,10.254,-3.906
1568081221.364,31.738,26.367,33.203,40.039,66.406
1568081221.368,27.344,25.391,22.461,43.945,53.711
1568081221.372,25.391,22.949,20.020,1.953,12.207
1568081221.376,24.902,24.902,21.973,-11.719,13.184
1568081221.380,18.555,22.949,22.949,21.484,-15.625
1568081221.384,18.066,20.508,26.855,42.480,20.020
1568081221.388,24.902,19.531,25.391,25.391,33.203
1568081221.392,27.832,22.461,26.855,-0.977,-12.695
1568081221.396,26.367,28.809,33.691,19.043,-24.902
1568081221.399,25.391,28.320,33.203,58.594,0.977
1568081221.403,24.414,25.879,29.785,51.270,37.109
1568081221.407,30.762,27.344,29.785,21.484,15.137
1568081221.411,31.738,30.762,31.250,24.414,68.359
1568081221.415,22.461,27.832,34.180,55.664,105.469
1568081221.419,26.855,23.926,30.762,62.500,31.250
1568081221.423,50.293,26.855,25.391,39.062,14.160
1568081221.427,59.082,25.879,33.691,38.574,44.922
1568081221.431,33.203,22.949,43.457,50.781,41.992
1568081221.435,15.137,19.043,40.039,51.270,26.367
1568081221.439,26.855,18.555,33.691,29.785,3.906
1568081221.442,31.738,15.137,39.551,11.719,-26.367
1568081221.446,16.602,7.812,44.434,23.438,-10.254
1568081221.450,18.555,7.812,42.969,53.223,38.574
1568081221.454,24.902,14.160,42.480,32.715,32.227
1568081221.458,24.902,17.578,35.645,-8.789,65.430
1568081221.462,24.414,21.973,36.133,10.742,131.836
1568081221.466,24.414,30.762,41.016,42.969,78.613
1568081221.470,26.367,31.250,39.062,32.227,35.645
1568081221.474,24.414,25.391,32.227,-2.930,10.742
1568081221.478,19.531,21.973,31.738,3.418,-24.414
1568081221.482,15.137,20.996,35.645,40.527,7.812
1568081221.485,14.160,20.508,34.668,47.363,59.082
1568081221.489,20.996,19.531,33.691,11.230,20.020
1568081221.493,28.809,23.438,35.645,5.859,28.320
1568081221.497,28.809,22.461,33.203,44.922,43.945
1568081221.501,29.297,21.484,28.320,57.129,14.160
1568081221.505,30.273,24.902,28.809,29.297,71.289
1568081221.509,32.715,25.879,32.715,12.695,62.500
1568081221.513,32.227,25.879,39.062,41.504,-2.441
1568081221.517,28.320,27.344,43.457,69.336,41.992
1568081221.521,27.832,26.855,42.480,46.387,85.449
1568081221.524,34.180,24.902,41.016,13.672,99.609
1568081221.528,28.809,24.902,35.645,17.090,47.852
1568081221.532,20.996,24.414,28.320,43.457,38.086
1568081221.536,23.926,26.855,20.996,41.016,84.473
1568081221.540,26.367,32.227,20.508,0.000,49.805
1568081221.544,25.391,31.738,28.320,0.977,26.855
1568081221.548,20.996,30.762,35.156,38.086,13.184
1568081221.552,27.344,28.320,34.668,53.223,0.977
1568081221.556,29.785,21.973,27.344,27.344,25.879
1568081221.560,32.227,19.531,30.762,12.207,51.270
1568081221.564,29.297,17.578,37.109,38.574,48.828
1568081221.567,28.809,18.066,38.574,56.152,36.621
1568081221.571,40.527,22.949,41.992,34.668,23.926
1568081221.575,40.527,25.391,41.016,12.207,-20.508
1568081221.579,35.156,27.344,39.551,33.691,-11.230
1568081221.583,31.738,30.273,37.109,60.059,26.367
1568081221.587,29.297,32.227,30.273,41.016,26.367
1568081221.591,34.668,33.203,26.855,11.230,-15.137
1568081221.595,35.156,33.203,21.973,23.926,-41.992
1568081221.599,31.738,34.668,15.137,58.105,5.371
1568081221.603,37.109,38.086,14.648,53.223,67.871
1568081221.607,31.738,37.109,15.625,8.789,46.387
1568081221.610,25.391,35.156,19.043,4.883,-22.461
1568081221.614,31.250,37.598,25.879,47.363,22.949
1568081221.618,29.785,36.133,24.902,54.199,52.246
1568081221.622,24.902,34.180,18.555,11.719,24.414
1568081221.626,24.902,32.715,18.555,-3.906,-14.648
1568081221.630,24.902,31.738,22.461,25.879,-0.977
1568081221.634,28.320,39.551,24.414,48.828,50.293
1568081221.638,34.180,44.922,23.926,25.879,26.367
1568081221.642,37.109,40.527,22.461,-4.883,51.758
1568081221.646,32.715,37.598,19.531,16.113,70.801
1568081221.649,26.367,34.668,19.531,52.734,41.016
1568081221.653,27.344,33.691,26.855,44.434,23.438
1568081221.657,26.367,36.133,30.762,10.742,12.207
1568081221.661,20.996,30.762,28.320,12.207,30.762
1568081221.665,22.949,29.785,25.879,46.875,9.766
1568081221.669,32.227,32.227,27.832,49.805,-13.672
1568081221.673,35.156,31.738,23.926,10.254,22.949
1568081221.677,33.691,29.297,19.531,4.395,18.555
1568081221.681,27.344,24.902,20.020,44.922,39.551
1568081221.685,28.809,23.438,20.020,56.641,49.805
1568081221.689,41.016,27.344,20.508,24.902,11.719
1568081221.692,47.363,33.203,26.855,12.695,74.219
1568081221.696,33.203,33.691,26.367,36.133,90.820
1568081221.700,23.438,28.320,20.996,56.641,75.684
1568081221.704,28.320,24.902,19.043,30.273,88.867
1568081221.708,26.855,25.391,18.555,-4.395,-12.695
1568081221.712,20.996,22.461,22.949,11.719,-24.414
1568081221.716,16.113,17.090,25.879,43.945,-2.930
1568081221.720,18.066,17.578,23.438,35.156,-14.160
1568081221.724,30.273,22.949,20.020,3.418,-4.395
1568081221.728,30.762,25.879,19.531,12.695,-28.320
1568081221.732,24.414,27.832,20.996,46.875,29.297
1568081221.735,25.391,24.414,17.090,43.457,65.430
1568081221.739,32.227,17.090,8.789,9.277,41.504
1568081221.743,30.762,17.578,11.719,2.441,2.930
1568081221.747,20.508,20.996,21.484,32.715,-12.207
1568081221.751,17.578,17.090,22.949,54.199,-44.434
1568081221.755,21.973,14.648,22.461,26.367,-50.293
1568081221.759,25.879,16.602,23.438,1.465,26.855
1568081221.763,23.438,12.207,20.508,27.832,10.254
1568081221.767,23.438,10.254,18.555,54.199,-11.230
1568081221.771,30.762,13.672,18.066,31.738,-22.461
1568081221.774,37.109,13.184,18.555,0.488,-9.766
1568081221.778,34.668,11.230,20.508,17.090,24.414
1568081221.782,23.926,11.719,18.555,48.340,36.621
1568081221.786,19.531,12.695,14.160,35.645,50.293
1568081221.790,28.320,16.113,15.625,-3.906,40.039
1568081221.794,29.785,15.137,22.461,0.000,35.156
1568081221.798,20.508,12.207,27.832,41.504,66.895
1568081221.802,8.301,9.766,22.949,45.410,82.520
1568081221.806,18.555,7.812,15.137,10.254,36.621
1568081221.810,32.227,7.812,13.184,-0.488,44.434
1568081221.814,17.578,8.301,13.184,29.785,21.973
1568081221.817,18.066,14.160,14.648,53.223,-6.348
1568081221.821,36.621,16.602,22.949,32.715,-0.488
1568081221.825,42.969,15.137,27.832,16.602,-18.066
1568081221.829,32.227,14.160,22.949,39.062,25.391
1568081221.833,26.367,14.648,19.531,62.988,91.309
1568081221.837,30.273,16.113,20.508,42.969,53.711
1568081221.841,46.387,22.461,26.367,17.578,48.828
1568081221.845,41.992,24.414,25.879,26.855,37.109
1568081221.849,21.973,22.949,18.555,51.758,62.988
1568081221.853,21.484,21.973,23.438,46.387,59.082
1568081221.857,30.762,22.461,30.273,3.906,16.113
1568081221.860,29.785,15.137,35.156,1.465,65.918
1568081221.864,6.348,6.348,34.180,34.668,35.156
1568081221.868,9.277,10.254,27.344,42.969,-31.250
1568081221.872,28.320,17.090,21.973,8.301,-27.344
1568081221.876,29.785,25.879,20.508,-6.836,19.531
1568081221.880,27.344,27.344,22.949,28.320,43.457
1568081221.884,17.578,25.391,21.973,48.340,1.465
1568081221.888,23.438,26.367,22.461,20.508,32.715
1568081221.892,39.062,23.926,25.879,-4.883,32.227
1568081221.896,30.273,22.949,30.273,18.555,21.484
1568081221.899,16.602,24.902,31.738,48.340,45.410
1568081221.903,27.344,27.344,25.391,37.109,69.824
1568081221.907,43.945,29.297,21.484,6.836,48.828
1568081221.911,43.457,30.762,23.438,17.578,-27.344
1568081221.915,28.320,33.203,28.809,54.688,-14.648
1568081221.919,27.344,36.133,25.879,49.316,55.664
1568081221.923,42.969,41.016,15.137,4.395,46.875
1568081221.927,37.598,40.527,18.066,-3.906,20.508
1568081221.931,17.090,31.738,31.738,35.156,82.520
1568081221.935,11.719,30.273,33.203,52.246,77.637
1568081221.939,28.320,36.133,22.949,15.625,16.113
1568081221.942,40.527,41.504,20.996,1.465,24.414
1568081221.946,38.086,46.875,24.414,36.133,51.270
1568081221.950,33.691,41.504,21.484,55.664,100.586
1568081221.954,38.086,41.504,25.391,30.273,87.891
1568081221.958,45.410,45.898,29.297,3.418,-17.578
1568081221.962,36.621,43.945,23.926,20.508,-24.902
1568081221.966,30.273,46.387,26.367,55.176,58.594
1568081221.970,34.180,45.898,24.902,43.457,50.293
1568081221.974,38.574,40.527,20.508,4.883,20.508
1568081221.978,29.297,41.992,26.367,12.207,20.020
1568081221.982,17.578,42.969,32.227,46.387,51.270
1568081221.985,25.879,42.480,28.809,46.387,70.312
1568081221.989,41.992,43.457,23.438,4.395,14.648
1568081221.993,48.340,45.898,23.926,-6.836,42.480
1568081221.997,29.785,44.434,21.973,27.832,29.785
1568081222.001,15.137,42.969,13.672,41.992,12.207
1568081222.005,27.344,46.875,13.184,13.184,49.316
1568081222.009,43.457,52.734,18.066,-2.930,-40.039
1568081222.013,37.109,53.223,25.391,30.273,-60.547
1568081222.017,27.344,49.805,31.738,62.012,39.551
1568081222.021,34.668,46.875,25.879,35.156,62.500
1568081222.024,45.898,42.969,23.438,5.859,44.434
1568081222.028,41.504,42.480,25.391,23.926,43.457
1568081222.032,27.832,45.410,24.902,53.223,38.086
1568081222.036,24.414,43.945,25.879,45.410,49.805
1568081222.040,38.086,42.480,26.367,4.883,20.996
1568081222.044,36.133,41.504,26.855,-1.465,63.965
1568081222.048,18.555,41.992,22.949,31.250,125.000
1568081222.052,24.902,45.898,17.578,39.062,21.973
1568081222.056,43.945,43.945,18.066,-1.465,-37.109
1568081222.060,41.016,43.945,18.555,-18.555,9.277
1568081222.064,27.344,47.363,21.973,23.438,16.113
1568081222.067,23.438,53.223,29.785,44.922,43.945
1568081222.071,32.227,50.781,31.738,11.719,44.434
1568081222.075,40.039,41.016,25.879,-11.719,57.129
1568081222.079,28.809,41.016,21.973,13.672,61.035
1568081222.083,19.531,42.969,23.926,48.340,23.438
1568081222.087,25.391,41.992,18.555,26.367,16.602
1568081222.091,39.551,41.504,17.090,-8.789,40.039
1568081222.095,32.715,40.039,23.438,8.789,49.805
1568081222.099,22.949,41.504,28.809,45.898,-18.555
1568081222.103,33.691,51.270,29.297,48.828,12.695
1568081222.107,48.340,50.293,29.297,10.742,50.293
1568081222.110,44.922,44.434,27.344,4.395,37.109
1568081222.114,21.973,45.410,22.949,40.527,41.016
1568081222.118,20.020,43.945,23.438,48.828,15.137
1568081222.122,34.668,39.062,25.879,8.789,42.969
1568081222.126,35.645,39.062,23.926,-8.789,53.711
1568081222.130,23.926,42.480,26.855,31.250,36.621
1568081222.134,18.066,47.852,30.762,58.105,3.418
1568081222.138,24.414,45.410,26.367,25.391,-47.363
1568081222.142,36.133,41.992,25.879,-0.488,-70.801
1568081222.146,33.691,41.016,32.227,27.832,-53.711
1568081222.149,17.090,40.039,27.344,55.664,31.250
1568081222.153,15.137,37.109,21.973,41.504,76.172
1568081222.157,32.227,36.133,25.391,10.254,37.109
1568081222.161,28.809,33.691,25.391,16.113,29.785
1568081222.165,15.625,32.715,25.391,50.781,36.621
1568081222.169,15.625,35.156,20.020,50.293,65.430
1568081222.173,28.320,35.156,18.066,11.719,59.570
1568081222.177,36.621,30.762,23.438,5.859,-12.207
1568081222.181,25.391,28.809,28.320,45.410,11.719
1568081222.185,19.043,34.668,28.809,59.082,12.695
1568081222.189,31.738,40.039,26.367,19.531,-9.277
1568081222.192,36.621,37.598,21.973,-2.441,11.719
1568081222.196,24.902,33.203,21.973,33.203,14.160
1568081222.200,19.043,32.715,24.414,63.477,28.809
1568081222.204,26.367,36.133,22.949,32.715,-26.855
1568081222.208,35.645,36.133,25.391,-0.977,30.273
1568081222.212,23.926,29.785,25.391,16.602,59.570
1568081222.216,11.719,28.320,25.391,46.387,9.766
1568081222.220,17.090,32.227,27.832,35.156,13.184
1568081222.224,33.203,35.645,27.344,0.488,33.203
1568081222.228,34.668,37.598,23.438,6.348,76.660
1568081222.232,22.461,38.574,24.902,53.223,56.152
1568081222.235,22.461,39.551,28.809,54.688,26.367
1568081222.239,38.574,39.551,26.367,10.254,55.176
1568081222.243,46.387,41.016,30.273,8.301,69.336
1568081222.247,36.133,41.992,32.227,49.805,59.082
1568081222.251,28.320,41.016,28.809,61.035,78.613
1568081222.255,34.180,36.621,28.809,18.066,70.312
1568081222.259,40.527,30.273,25.879,-3.906,29.785
1568081222.263,23.438,28.320,21.973,24.414,71.777
1568081222.267,12.695,28.809,21.973,45.410,111.328
1568081222.271,21.484,27.832,22.461,21.973,54.688
1568081222.274,33.203,27.344,19.531,-4.883,22.461
1568081222.278,28.809,33.691,19.043,14.648,22.461
1568081222.282,14.160,40.039,23.438,48.340,23.438
1568081222.286,18.555,35.645,22.949,37.598,19.531
1568081222.290,37.109,32.715,16.602,1.465,-14.160
1568081222.294,35.645,34.180,12.695,4.883,-1.953
1568081222.298,18.066,34.668,20.508,43.457,0.977
1568081222.302,24.902,36.621,25.391,55.664,42.969
1568081222.306,42.480,34.180,24.414,19.531,49.316
1568081222.310,39.551,34.180,24.902,4.395,27.832
1568081222.314,23.926,37.598,26.855,36.621,12.695
1568081222.317,18.066,35.156,31.250,53.711,13.184
1568081222.321,29.785,29.297,32.715,19.043,17.090
1568081222.325,38.574,27.832,30.762,-7.324,40.039
1568081222.329,17.578,27.344,25.879,19.531,78.125
1568081222.333,8.789,24.414,23.926,49.316,55.664
1568081222.337,25.879,28.320,23.926,28.809,41.016
1568081222.341,43.457,27.344,18.555,-1.953,-0.977
1568081222.345,43.945,25.879,19.043,15.625,0.977
1568081222.349,28.320,27.832,27.344,51.758,23.438
1568081222.353,29.297,27.832,26.367,45.410,-36.621
1568081222.357,41.504,26.367,20.020,3.418,18.555
1568081222.360,47.852,26.367,20.020,4.883,90.820
1568081222.364,38.086,25.391,26.855,43.457,62.500
1568081222.368,26.855,26.367,26.367,47.852,3.418
1568081222.372,45.410,29.785,23.438,14.160,33.691
1568081222.376,56.641,23.438,31.250,3.906,58.594
1568081222.380,24.902,17.090,44.434,32.227,5.859
1568081222.384,8.301,21.973,39.551,53.223,2.441
1568081222.388,33.691,21.484,29.297,31.738,20.508
1568081222.392,38.086,17.578,33.691,0.977,22.461
1568081222.396,22.949,19.043,36.621,20.020,19.531
1568081222.399,20.508,19.043,34.180,59.082,1.953
1568081222.403,26.367,17.578,31.738,39.062,-17.090
1568081222.407,44.922,20.020,32.715,0.000,-17.090
1568081222.411,39.062,19.531,30.273,16.602,-13.672
1568081222.415,16.602,13.672,29.297,51.758,17.090
1568081222.419,18.066,12.695,32.715,48.340,12.695
1568081222.423,32.715,9.766,34.180,18.555,42.480
1568081222.427,42.480,14.648,35.156,17.090,54.199
1568081222.431,24.414,21.484,30.273,42.480,38.086
1568081222.435,12.207,13.184,22.949,48.340,1.953
1568081222.439,33.691,9.277,21.484,17.578,-29.785
1568081222.442,43.457,12.207,28.320,3.906,-25.879
1568081222.446,19.531,13.672,34.180,29.297,20.996
1568081222.450,8.789,14.648,30.762,50.781,79.102
1568081222.454,24.414,13.184,26.367,25.391,52.734
1568081222.458,39.551,14.648,30.273,0.488,25.391
1568081222.462,34.668,17.578,30.273,25.391,52.734
1568081222.466,21.973,11.719,27.344,50.781,41.992
1568081222.470,27.344,10.254,24.414,35.156,20.508
1568081222.474,38.574,14.648,25.391,-0.977,4.395
1568081222.478,33.203,16.602,26.367,7.324,26.367
1568081222.482,20.020,20.508,24.414,48.828,41.016
1568081222.485,18.066,23.438,27.832,49.805,31.250
1568081222.489,32.715,21.484,27.344,13.184,92.773
1568081222.493,41.016,21.973,27.832,12.207,46.387
1568081222.497,24.902,20.508,33.203,49.316,-1.465
1568081222.501,12.695,15.625,33.203,54.688,19.043
1568081222.505,24.902,17.090,35.156,20.020,1.953
1568081222.509,29.785,13.672,36.133,3.418,21.973
1568081222.513,16.113,17.090,33.691,37.598,-2.441
1568081222.517,3.906,23.438,31.250,61.523,14.160
1568081222.521,11.230,20.508,30.762,30.273,68.359
1568081222.524,28.809,18.555,29.297,3.906,43.945
1568081222.528,22.461,14.648,29.785,21.973,-15.625
1568081222.532,10.254,14.160,30.762,48.340,-4.883
1568081222.536,16.113,18.555,30.273,35.156,-21.973
1568081222.540,32.227,22.461,27.344,-1.953,4.883
1568081222.544,32.715,26.367,23.926,4.883,37.109
1568081222.548,17.090,29.297,26.855,40.527,18.066
1568081222.552,19.531,28.320,31.738,42.969,25.391
1568081222.556,40.527,30.273,34.668,11.719,37.598
1568081222.560,41.504,29.297,31.250,-1.953,50.293
1568081222.564,23.438,25.391,30.762,29.785,59.082
1568081222.567,20.508,23.926,31.250,50.781,46.387
1568081222.571,31.250,25.879,30.273,12.207,-7.324
1568081222.575,38.574,28.320,32.715,-12.207,33.691
1568081222.579,35.156,31.738,34.180,26.367,87.402
1568081222.583,24.902,34.180,32.227,55.176,71.777
1568081222.587,25.391,29.297,26.855,25.391,17.090
1568081222.591,38.574,25.391,22.461,-5.371,15.137
1568081222.595,41.992,32.227,24.902,17.578,46.387
1568081222.599,30.762,33.691,27.344,53.223,23.926
1568081222.603,30.762,31.738,31.738,48.340,51.270
1568081222.607,50.781,34.668,35.156,17.090,69.824
1568081222.610,50.293,33.691,32.715,17.090,66.895
1568081222.614,31.738,34.180,31.250,51.270,37.598
1568081222.618,27.832,32.227,33.691,56.641,35.156
1568081222.622,36.133,29.297,35.156,13.672,59.082
1568081222.626,43.457,29.297,33.203,3.906,43.457
1568081222.630,32.715,30.762,26.855,45.898,6.836
1568081222.634,21.484,30.273,20.508,61.523,26.367
1568081222.638,36.621,28.809,23.926,26.367,43.457
1568081222.642,49.316,30.762,26.855,2.441,62.500
1568081222.646,35.645,34.668,25.391,29.785,76.172
1568081222.649,18.555,38.574,28.809,61.035,68.359
1568081222.653,25.879,37.598,30.762,40.527,15.137
1568081222.657,40.039,33.691,32.227,3.906,23.926
1568081222.661,34.668,33.691,33.691,14.648,15.137
1568081222.665,21.973,35.645,37.109,52.734,-0.977
1568081222.669,21.973,33.691,32.715,45.898,63.965
1568081222.673,36.133,32.715,21.484,0.977,48.340
1568081222.677,35.645,32.227,26.855,-1.465,41.992
1568081222.681,16.602,31.250,37.109,38.574,82.520
1568081222.685,13.184,33.691,33.203,50.781,47.852
1568081222.689,26.367,36.621,24.414,5.859,39.551
1568081222.692,31.738,36.133,23.438,-9.277,22.461
1568081222.696,20.996,35.645,24.902,32.715,13.184
1568081222.700,17.578,36.133,25.391,56.152,33.203
1568081222.704,32.227,36.133,29.297,27.344,50.293
1568081222.708,38.574,34.180,30.273,0.000,-7.812
1568081222.712,24.902,34.668,28.809,23.438,8.301
1568081222.716,9.766,35.645,31.738,50.293,62.500
1568081222.720,16.602,37.598,28.320,29.297,21.484
1568081222.724,29.297,37.109,20.996,-3.906,28.320
1568081222.728,22.461,36.133,20.508,11.230,6.348
1568081222.732,11.719,44.434,23.926,53.223,7.812
1568081222.735,16.602,46.387,22.949,53.223,26.855
1568081222.739,28.320,40.039,25.391,11.230,36.621
1568081222.743,25.879,37.109,29.297,-1.953,42.969
1568081222.747,8.789,35.156,28.320,35.156,51.270
1568081222.751,4.395,33.691,34.668,52.734,55.664
1568081222.755,25.391,36.133,40.039,16.113,15.625
1568081222.759,33.203,38.086,37.109,-6.348,-2.441
1568081222.763,18.066,37.598,29.785,26.367,30.762
1568081222.767,18.066,40.527,23.926,59.082,103.027
1568081222.771,28.320,40.527,24.902,37.109,72.266
1568081222.774,26.367,32.715,28.809,-3.906,10.742
1568081222.778,13.184,29.785,28.809,5.859,44.434
1568081222.782,13.184,29.785,31.738,49.316,5.859
1568081222.786,21.484,31.250,40.527,40.527,-30.273
1568081222.790,23.438,32.227,38.574,-4.395,2.930
1568081222.794,32.715,34.180,32.715,8.301,6.348
1568081222.798,27.344,39.551,28.320,48.340,42.969
1568081222.802,20.996,37.109,24.902,45.898,80.078
1568081222.806,40.527,33.691,27.344,12.695,62.988
1568081222.810,43.945,35.156,29.785,8.789,30.273
1568081222.814,29.297,30.273,31.250,46.387,37.598
1568081222.817,24.902,25.879,37.598,61.523,58.594
1568081222.821,37.598,29.785,38.086,24.414,21.973
1568081222.825,44.434,28.320,32.227,0.000,-30.273
1568081222.829,27.832,25.879,30.762,29.785,-35.156
1568081222.833,17.090,27.832,35.645,57.129,26.855
1568081222.837,22.461,29.785,39.062,30.762,37.109
1568081222.841,38.086,34.668,40.039,0.488,3.418
1568081222.845,35.645,35.156,41.016,22.949,20.996
1568081222.849,17.578,34.180,39.062,56.641,13.184
1568081222.853,20.508,37.109,33.203,46.387,12.207
1568081222.857,40.527,33.691,24.414,10.254,-6.836
1568081222.860,34.668,28.809,19.531,8.301,31.250
1568081222.864,10.742,26.855,26.367,39.062,86.914
1568081222.868,13.672,30.762,35.156,45.410,42.480
1568081222.872,31.250,34.668,30.762,10.254,39.551
1568081222.876,36.133,30.762,28.320,-2.441,38.574
1568081222.880,23.438,27.344,34.180,31.738,0.488
1568081222.884,17.090,28.809,35.645,50.781,42.480
1568081222.888,32.227,29.785,33.203,20.996,70.312
1568081222.892,45.410,27.344,27.832,0.488,94.238
1568081222.896,37.109,27.344,22.461,30.762,74.219
1568081222.899,24.414,25.391,24.414,60.547,23.438
1568081222.903,31.738,27.344,23.438,33.691,27.832
1568081222.907,49.805,36.621,20.996,0.977,15.137
1568081222.911,42.969,36.621,22.461,13.672,20.996
1568081222.915,23.926,33.203,28.320,40.527,26.855
1568081222.919,27.832,35.645,32.715,41.016,13.184
1568081222.923,46.875,31.250,31.250,10.742,79.590
1568081222.927,48.340,21.973,27.832,10.254,56.152
1568081222.931,27.832,25.391,27.832,48.828,24.414
1568081222.935,23.438,36.133,29.785,60.059,76.660
1568081222.939,38.574,37.109,32.227,19.043,25.391
1568081222.942,48.340,38.086,34.180,2.930,0.977
1568081222.946,37.598,42.969,33.203,43.457,34.668
1568081222.950,26.367,42.969,34.668,63.477,32.227
1568081222.954,41.016,41.992,30.762,32.227,-9.277
1568081222.958,52.246,37.109,24.902,5.859,-19.043
1568081222.962,42.969,30.273,22.461,31.250,12.207
1568081222.966,29.297,31.738,24.414,62.500,-0.488
1568081222.970,30.273,30.762,29.785,44.434,-6.836
1568081222.974,43.457,26.367,30.273,15.625,-23.438
1568081222.978,44.922,26.367,25.879,29.785,-22.461
1568081222.982,34.668,27.344,32.227,61.523,50.781
1568081222.985,34.180,24.414,38.574,55.664,65.430
1568081222.989,49.805,26.855,31.738,13.672,78.613
1568081222.993,55.664,39.551,26.855,7.324,51.758
1568081222.997,36.621,45.410,25.391,46.387,51.758
1568081223.001,25.391,42.969,22.949,52.734,80.078
1568081223.005,43.945,39.062,22.949,11.230,17.578
1568081223.009,55.664,38.086,20.996,2.441,-21.973
1568081223.013,42.480,36.133,20.020,38.086,-22.949
1568081223.017,36.133,35.645,25.879,62.012,5.371
1568081223.021,43.945,33.203,25.391,35.645,35.156
1568081223.024,48.828,30.762,24.902,5.859,85.449
1568081223.028,40.039,36.621,28.809,27.832,95.215
1568081223.032,27.344,40.039,29.785,60.547,38.086
1568081223.036,30.762,35.156,29.297,44.434,-11.719
1568081223.040,51.270,32.715,26.367,4.883,-38.574
1568081223.044,46.875,32.715,28.809,12.695,-7.324
1568081223.048,21.973,33.203,35.156,51.270,69.336
1568081223.052,22.461,32.715,32.227,52.734,58.105
1568081223.056,41.504,37.598,28.320,15.137,37.598
1568081223.060,44.434,40.039,25.879,10.254,39.551
1568081223.064,29.785,37.109,21.484,50.781,5.371
1568081223.067,26.855,35.156,17.090,60.547,24.902
1568081223.071,37.598,35.645,21.484,21.973,5.859
1568081223.075,45.898,38.086,25.391,7.812,-0.488
1568081223.079,35.156,34.668,25.391,36.621,6.836
1568081223.083,24.414,28.809,30.762,57.129,-25.879
1568081223.087,30.273,25.879,30.762,32.715,15.137
1568081223.091,43.457,27.344,26.367,-0.977,76.172
1568081223.095,37.109,29.297,25.391,11.719,37.598
1568081223.099,23.926,27.344,25.879,53.711,-2.441
1568081223.103,19.531,27.832,23.438,37.109,35.156
1568081223.107,28.320,28.320,22.949,-8.789,72.266
1568081223.110,33.691,29.297,31.250,6.348,31.250
1568081223.114,15.625,34.668,36.133,38.574,40.527
1568081223.118,25.391,35.645,35.645,51.270,80.566
1568081223.122,44.922,31.250,32.715,21.484,37.598
1568081223.126,41.992,33.203,35.645,6.836,-8.789
1568081223.130,31.738,34.180,38.086,48.828,-24.414
1568081223.134,23.926,28.809,28.809,62.012,20.996
1568081223.138,29.297,25.879,24.902,20.508,4.883
1568081223.142,35.645,22.949,27.832,0.977,21.484
1568081223.146,23.438,26.367,30.273,37.109,104.004
1568081223.149,12.207,32.715,34.668,68.359,72.266
1568081223.153,20.020,29.785,32.715,44.922,11.719
1568081223.157,37.598,29.785,32.227,12.207,-12.207
1568081223.161,39.551,32.715,39.551,30.273,-12.207
1568081223.165,24.414,32.715,39.062,62.012,25.879
1568081223.169,22.461,31.738,28.809,52.734,-1.465
1568081223.173,40.039,32.227,21.973,13.184,-36.621
1568081223.177,38.086,33.203,24.414,13.672,14.648
1568081223.181,13.184,32.715,26.367,50.293,40.039
1568081223.185,7.324,36.133,24.414,53.711,3.418
1568081223.189,23.438,36.621,29.297,17.090,48.340
1568081223.192,29.785,36.621,27.832,9.766,31.738
1568081223.196,14.648,32.227,20.996,42.969,-1.465
1568081223.200,4.395,24.902,23.926,56.152,39.062
1568081223.204,19.043,26.367,25.391,21.973,64.453
1568081223.208,31.250,25.879,27.344,-3.418,22.949
1568081223.212,16.602,24.902,33.691,27.832,38.086
1568081223.216,3.418,21.484,34.668,55.664,35.645
1568081223.220,16.602,23.438,35.645,38.086,-4.883
1568081223.224,35.645,33.203,33.691,8.301,27.832
1568081223.228,34.180,30.273,31.738,21.973,13.672
1568081223.232,18.066,23.438,30.273,56.641,-6.836
1568081223.235,17.578,23.438,25.879,49.316,46.387
1568081223.239,32.227,25.879,21.484,10.254,95.703
1568081223.243,27.344,20.508,20.996,7.812,57.129
1568081223.247,6.836,18.555,25.391,43.945,38.086
1568081223.251,9.277,24.902,26.855,55.176,78.613
1568081223.255,21.973,23.926,25.879,13.672,59.082
1568081223.259,25.879,20.508,29.297,-6.836,20.020
1568081223.263,17.578,18.555,38.086,29.297,26.855
1568081223.267,12.695,17.090,40.039,56.152,40.039
1568081223.271,24.414,14.160,35.156,29.785,-2.930
1568081223.274,39.062,15.625,27.832,2.441,-29.785
1568081223.278,32.227,18.555,24.902,27.344,17.578
1568081223.282,16.602,18.555,27.832,56.641,76.660
1568081223.286,20.508,18.555,25.879,39.062,58.594
1568081223.290,35.156,21.973,26.855,3.906,53.223
1568081223.294,32.715,24.414,33.203,16.113,60.547
1568081223.298,22.949,25.879,31.738,60.547,53.711
1568081223.302,24.414,24.902,28.809,55.664,11.719
1568081223.306,34.180,24.414,31.250,15.625,2.930
1568081223.310,38.086,25.879,31.250,10.742,8.301
1568081223.314,27.832,26.855,36.133,47.852,10.254
1568081223.317,15.137,27.344,41.504,56.641,62.988
1568081223.321,20.996,24.414,35.156,17.578,34.180
1568081223.325,36.133,17.090,27.832,3.906,-14.160
1568081223.329,18.066,12.207,26.367,33.691,36.621
1568081223.333,5.371,7.812,26.367,53.711,40.039
1568081223.337,22.461,13.184,27.344,29.785,20.996
1568081223.341,31.250,22.461,24.902,5.371,1.953
1568081223.345,20.020,21.484,20.996,22.949,40.527
1568081223.349,9.277,23.438,29.297,49.805,74.707
1568081223.353,22.949,32.715,36.621,38.574,22.949
1568081223.357,39.551,30.762,32.715,7.812,23.926
1568081223.360,33.203,25.391,24.414,14.160,13.184
1568081223.364,17.090,24.414,20.996,44.922,10.742
1568081223.368,12.207,20.996,24.414,42.480,25.879
1568081223.372,27.344,19.531,24.902,7.324,29.297
1568081223.376,34.668,20.020,29.297,5.859,34.668
1568081223.380,25.879,19.531,33.691,43.945,46.387
1568081223.384,19.043,19.043,38.086,59.570,60.547
1568081223.388,34.180,27.344,39.062,26.367,22.949
1568081223.392,47.852,34.180,32.715,3.906,41.992
1568081223.396,33.691,32.715,29.297,35.645,64.941
1568081223.399,19.043,29.785,31.738,64.453,-8.301
1568081223.403,30.762,28.809,33.203,37.598,-37.598
1568081223.407,40.039,32.227,30.273,4.883,36.621
1568081223.411,25.391,29.297,28.809,26.855,88.379
1568081223.415,12.695,24.902,30.762,57.617,38.574
1568081223.419,20.996,24.414,32.715,39.551,12.207
1568081223.423,39.551,21.484,31.250,4.395,12.695
1568081223.427,34.668,19.531,28.809,7.324,31.250
1568081223.431,12.695,20.996,31.738,46.387,82.031
1568081223.435,9.766,22.461,34.668,50.781,74.219
1568081223.439,28.320,27.344,33.203,11.719,13.184
1568081223.442,30.273,25.879,35.156,-0.977,-15.137
1568081223.446,12.207,27.344,41.992,34.668,25.391
1568081223.450,5.371,32.227,45.898,54.688,34.668
1568081223.454,18.555,23.926,36.621,16.602,76.172
1568081223.458,32.715,22.949,25.879,-5.371,38.086
1568081223.462,22.949,26.855,21.973,26.367,5.371
1568081223.466,9.766,28.320,22.461,52.734,41.992
1568081223.470,14.160,31.250,22.461,28.320,33.203
1568081223.474,23.926,29.785,23.926,-3.906,100.586
1568081223.478,22.949,27.344,28.320,18.066,52.734
1568081223.482,1.465,32.227,32.715,54.688,28.809
1568081223.485,-10.742,40.527,33.691,42.480,34.180
1568081223.489,18.555,41.504,32.227,3.906,24.902
1568081223.493,23.926,36.133,31.250,5.859,52.734
1568081223.497,1.465,31.738,30.273,38.574,3.418
1568081223.501,-3.418,27.344,26.855,40.527,-26.367
1568081223.505,19.043,28.809,23.438,0.977,12.207
1568081223.509,27.832,32.227,24.414,-10.254,-0.488
1568081223.513,9.766,31.250,28.809,29.785,30.273
1568081223.517,6.348,30.762,30.762,51.758,53.223
1568081223.521,18.066,28.809,29.785,22.461,29.297
1568081223.524,29.297,27.344,30.273,1.465,26.367
1568081223.528,18.555,29.785,27.344,31.738,24.902
1568081223.532,6.836,28.320,26.855,53.711,55.664
1568081223.536,18.066,30.762,29.785,34.180,36.621
1568081223.540,31.738,35.645,30.273,7.812,65.430
1568081223.544,24.902,35.156,31.250,15.137,24.902
1568081223.548,6.348,34.180,36.621,49.316,10.742
1568081223.552,3.906,30.762,35.156,50.293,87.402
1568081223.556,17.090,32.227,32.227,11.230,58.594
1568081223.560,6.836,31.738,32.227,-0.488,-11.719
1568081223.564,-6.348,26.855,31.738,44.434,-47.852
1568081223.567,7.324,28.320,35.645,62.988,8.301
1568081223.571,17.090,30.762,34.668,20.508,72.266
1568081223.575,20.996,28.809,28.320,7.812,29.297
1568081223.579,19.043,31.250,26.367,40.039,13.672
1568081223.583,19.043,40.527,29.297,64.941,52.734
1568081223.587,28.320,40.039,34.668,34.668,27.344
1568081223.591,31.250,35.645,37.109,2.441,-12.207
1568081223.595,20.020,35.156,34.180,28.320,-42.480
1568081223.599,16.602,33.691,31.738,58.105,31.250
1568081223.603,29.297,31.738,38.574,38.574,50.293
1568081223.607,47.363,29.297,41.016,6.348,2.441
1568081223.610,45.898,27.344,35.156,20.996,32.227
1568081223.614,20.996,28.320,36.621,66.895,1.953
1568081223.618,21.973,25.879,37.109,67.383,0.488
1568081223.622,39.551,19.531,32.227,18.066,6.836
1568081223.626,34.668,15.625,31.738,3.906,38.086
1568081223.630,24.414,16.113,34.180,37.598,88.379
1568081223.634,20.508,14.648,34.668,46.387,37.598
1568081223.638,29.297,13.184,32.227,11.719,-41.016
1568081223.642,47.363,18.066,27.832,-2.930,-21.973
1568081223.646,35.645,22.461,27.832,30.273,50.293
1568081223.649,14.160,23.926,28.320,55.176,8.301
1568081223.653,28.809,25.391,28.809,25.391,23.926
1568081223.657,48.828,25.879,31.738,-2.441,39.062
1568081223.661,42.480,23.926,32.227,20.996,7.812
1568081223.665,29.297,19.531,31.738,54.688,46.387
1568081223.669,30.273,13.672,30.273,43.945,62.012
1568081223.673,43.457,16.113,32.227,10.254,32.227
1568081223.677,47.852,20.508,38.086,14.648,36.621
1568081223.681,32.715,18.555,40.527,49.805,42.969
1568081223.685,35.156,18.066,42.969,62.500,42.480
1568081223.689,51.270,20.020,41.992,25.879,64.941
1568081223.692,48.340,20.508,27.832,11.230,23.926
1568081223.696,30.762,14.160,21.973,44.434,27.344
1568081223.700,34.180,14.160,26.367,62.988,-14.648
1568081223.704,47.363,17.578,26.367,26.855,-69.824
1568081223.708,53.223,18.555,25.879,2.930,-49.316
1568081223.712,41.992,20.996,33.203,33.691,-12.207
1568081223.716,28.320,19.531,41.016,61.523,24.414
1568081223.720,35.645,19.043,37.109,36.133,14.648
1568081223.724,47.852,21.973,26.367,-3.906,-20.020
1568081223.728,41.504,22.949,26.367,6.836,26.855
1568081223.732,19.531,22.461,31.250,41.504,74.707
1568081223.735,18.555,19.043,33.691,36.621,29.785
1568081223.739,35.645,18.555,31.738,0.000,76.172
1568081223.743,30.762,23.438,28.320,-0.488,43.457
1568081223.747,18.555,25.391,25.391,41.016,-15.137
1568081223.751,18.066,19.531,22.461,45.898,42.969
1568081223.755,29.785,20.508,25.879,9.277,76.660
1568081223.759,46.875,31.738,30.273,6.348,16.113
1568081223.763,30.273,38.574,32.227,43.945,-16.113
1568081223.767,18.066,33.691,36.133,61.035,55.176
1568081223.771,41.016,25.391,35.645,29.785,59.082
1568081223.774,42.969,24.414,34.668,6.836,22.461
1568081223.778,35.156,28.809,33.203,38.574,12.695
1568081223.782,34.180,31.738,29.785,67.871,2.441
1568081223.786,39.062,32.715,27.344,36.133,-14.160
1568081223.790,47.363,32.715,27.344,2.930,6.348
1568081223.794,41.992,34.668,31.250,23.926,29.297
1568081223.798,23.926,34.180,35.156,57.129,37.598
1568081223.802,20.508,31.738,35.645,46.875,38.086
1568081223.806,35.156,28.320,35.156,-0.488,36.621
1568081223.810,40.039,26.855,35.156,-0.488,45.410
1568081223.814,26.855,30.273,33.691,39.062,55.664
1568081223.817,21.484,31.250,35.156,45.898,63.477
1568081223.821,36.621,31.250,36.621,10.742,55.176
1568081223.825,43.945,30.762,34.180,-0.488,69.824
1568081223.829,34.668,30.273,34.180,35.645,39.062
1568081223.833,21.973,35.156,29.785,55.664,47.363
1568081223.837,25.879,33.691,24.902,27.344,90.820
1568081223.841,36.133,34.668,23.926,5.371,35.645
1568081223.845,38.574,34.668,27.344,27.832,44.434
1568081223.849,24.414,35.645,34.180,56.152,6.836
1568081223.853,21.973,37.598,35.156,40.039,11.719
1568081223.857,37.598,32.715,27.832,2.930,42.480
1568081223.860,35.645,28.320,24.414,10.742,30.273
1568081223.864,22.461,31.738,29.297,53.223,61.523
1568081223.868,20.020,38.086,26.367,47.363,17.578
1568081223.872,41.016,38.574,19.531,9.766,-18.066
1568081223.876,44.434,33.691,23.438,8.301,16.113
1568081223.880,25.879,33.203,30.273,46.387,61.035
1568081223.884,19.531,31.738,28.320,62.988,81.543
1568081223.888,32.715,27.344,25.879,30.273,14.160
1568081223.892,46.875,29.297,25.391,12.207,-12.207
1568081223.896,30.762,29.785,26.367,37.598,-26.855
1568081223.899,15.625,34.668,31.250,56.152,-36.133
1568081223.903,36.133,38.086,28.809,25.391,21.973
1568081223.907,48.340,33.203,25.879,-1.953,20.996
1568081223.911,29.785,32.227,34.180,18.066,37.598
1568081223.915,16.113,40.039,33.691,51.270,38.086
1568081223.919,18.555,45.410,25.879,38.086,2.441
1568081223.923,41.992,42.480,26.367,3.418,-5.859
1568081223.927,49.316,35.645,34.668,20.996,57.617
1568081223.931,34.668,37.109,37.598,53.223,72.266
1568081223.935,33.203,43.945,31.738,51.270,60.059
1568081223.939,53.711,42.969,29.785,20.996,10.254
1568081223.942,66.406,38.574,33.691,17.578,-9.766
1568081223.946,46.387,40.039,34.668,56.152,34.180
1568081223.950,38.574,40.527,28.809,69.336,62.012
1568081223.954,44.434,36.133,27.344,31.738,74.219
1568081223.958,46.387,30.762,33.203,14.160,-10.254
1568081223.962,51.758,34.668,35.645,47.852,-24.414
1568081223.966,37.109,33.691,35.645,67.383,5.859
1568081223.970,30.762,29.297,33.691,38.086,55.176
1568081223.974,35.156,30.762,28.809,6.348,89.844
1568081223.978,31.738,31.250,28.320,24.902,46.875
1568081223.982,21.973,27.344,29.297,50.293,39.062
1568081223.985,28.809,25.879,29.785,37.109,73.730
1568081223.989,46.875,33.203,33.691,15.625,48.340
1568081223.993,46.875,35.645,38.086,23.926,29.297
1568081223.997,32.715,34.668,36.133,55.664,17.578
1568081224.001,24.414,32.227,34.668,53.711,1.953
1568081224.005,29.785,30.273,35.645,16.602,15.137
1568081224.009,41.016,26.855,34.180,8.789,12.207
1568081224.013,28.320,22.461,33.203,44.434,17.578
1568081224.017,20.996,25.879,35.645,67.383,34.668
1568081224.021,35.645,27.832,40.527,34.180,35.156
1568081224.024,49.805,29.297,42.969,5.859,72.266
1568081224.028,33.691,26.855,39.062,33.691,47.852
1568081224.032,3.418,21.973,31.738,57.129,-15.137
1568081224.036,14.160,20.020,31.250,25.879,17.578
1568081224.040,34.180,26.367,29.785,-6.348,57.617
1568081224.044,29.297,32.227,31.738,13.672,21.484
1568081224.048,19.043,33.203,39.551,57.129,15.137
1568081224.052,24.902,30.762,41.016,53.223,14.160
1568081224.056,47.363,23.926,34.668,14.160,-37.109
1568081224.060,41.992,21.484,25.879,13.672,-8.301
1568081224.064,18.555,21.973,24.902,47.363,41.504
1568081224.067,18.066,26.855,27.344,55.664,42.480
1568081224.071,24.902,33.203,24.902,19.043,33.203
1568081224.075,21.973,31.738,25.391,8.301,-23.926
1568081224.079,2.441,27.832,32.715,41.504,-47.852
1568081224.083,-9.277,30.273,36.621,55.664,12.695
1568081224.087,5.371,32.227,35.156,25.391,10.254
1568081224.091,19.531,30.273,35.156,7.324,20.996
1568081224.095,5.859,27.344,38.574,33.691,20.996
1568081224.099,-10.254,29.297,35.156,53.711,0.488
1568081224.103,-0.488,33.203,28.809,37.109,-19.043
1568081224.107,19.531,38.574,31.738,6.836,-26.367
1568081224.110,3.418,41.992,33.203,13.672,57.617
1568081224.114,-16.602,39.551,30.762,49.805,34.668
1568081224.118,-10.254,36.621,25.879,49.316,3.906
1568081224.122,6.836,35.645,25.391,8.301,68.359
1568081224.126,12.695,34.180,31.250,4.883,18.555
1568081224.130,1.465,32.227,28.320,41.016,15.137
1568081224.134,4.395,31.250,26.367,54.688,65.918
1568081224.138,25.879,35.156,27.344,11.719,44.434
1568081224.142,36.621,40.527,26.367,-7.812,62.988
1568081224.146,20.996,39.551,27.344,34.180,70.312
1568081224.149,14.160,38.086,25.391,62.012,65.918
1568081224.153,24.414,40.039,20.996,32.227,54.688
1568081224.157,28.320,41.016,21.973,0.977,48.340
1568081224.161,18.066,39.551,32.227,26.855,17.578
1568081224.165,18.555,43.457,40.527,61.035,3.906
1568081224.169,31.738,46.387,40.527,45.410,38.086
1568081224.173,40.527,42.480,30.762,14.160,11.230
1568081224.177,33.203,44.434,21.484,20.020,-31.250
1568081224.181,12.695,46.387,20.020,49.805,55.176
1568081224.185,12.695,41.992,23.926,54.688,125.488
1568081224.189,26.367,43.457,26.367,12.695,28.809
1568081224.192,35.645,49.805,30.762,2.441,-8.301
1568081224.196,27.832,49.316,40.527,44.434,30.273
1568081224.200,17.090,49.805,43.457,58.105,16.602
1568081224.204,23.438,49.316,35.645,25.391,18.066
1568081224.208,40.039,45.410,26.367,9.277,46.387
1568081224.212,27.344,47.852,26.855,36.621,73.242
1568081224.216,13.184,51.758,33.203,60.059,117.676
1568081224.220,31.738,46.875,38.574,33.203,59.082
1568081224.224,44.434,41.504,41.504,4.883,-17.578
1568081224.228,28.320,43.457,45.410,26.855,7.812
1568081224.232,21.973,45.898,47.852,57.617,65.918
1568081224.235,29.785,41.992,41.992,41.504,50.293
1568081224.239,40.527,42.480,36.133,6.836,11.719
1568081224.243,38.086,44.434,30.273,10.742,44.922
1568081224.247,24.414,42.969,28.320,43.945,51.270
1568081224.251,25.879,41.992,32.715,51.758,31.250
1568081224.255,31.250,38.086,30.762,6.836,25.879
1568081224.259,38.086,36.621,35.645,-5.859,54.199
1568081224.263,26.855,39.551,41.992,34.180,26.367
1568081224.267,14.648,39.551,37.598,45.898,-22.949
1568081224.271,25.391,37.598,29.297,8.301,-14.648
1568081224.274,34.668,39.551,26.367,-12.695,33.691
1568081224.278,30.273,43.457,31.250,21.973,38.574
1568081224.282,23.926,43.945,34.668,51.270,33.203
1568081224.286,32.715,45.898,31.250,31.250,46.875
1568081224.290,47.852,43.457,28.320,4.395,53.223
1568081224.294,41.016,40.527,34.668,17.090,19.043
1568081224.298,24.902,43.945,44.434,54.199,19.043
1568081224.302,31.250,43.945,46.387,49.316,24.414
1568081224.306,43.457,39.062,39.551,5.371,-11.230
1568081224.310,41.016,36.621,34.668,7.812,19.043
1568081224.314,27.832,37.109,33.691,50.781,54.688
1568081224.317,30.762,41.504,37.598,64.941,54.199
1568081224.321,45.898,42.480,38.574,28.809,25.879
1568081224.325,52.734,39.062,34.668,14.648,21.484
1568081224.329,37.598,41.016,33.203,49.316,11.719
1568081224.333,35.645,46.875,41.016,71.289,42.969
1568081224.337,47.363,44.434,44.434,39.062,73.730
1568081224.341,49.805,39.551,33.203,13.672,21.973
1568081224.345,39.551,39.062,32.227,37.109,-20.508
1568081224.349,23.438,38.086,42.969,66.895,53.223
1568081224.353,31.250,38.574,50.781,44.434,66.895
1568081224.357,48.340,42.480,47.852,13.184,14.648
1568081224.360,41.504,37.598,41.504,32.227,2.441
1568081224.364,28.320,34.180,44.434,68.848,21.484
1568081224.368,28.809,34.180,45.898,65.430,46.875
1568081224.372,33.691,30.762,37.109,24.414,33.203
1568081224.376,29.297,27.832,31.250,17.090,4.395
1568081224.380,14.160,25.879,29.785,52.246,32.715
1568081224.384,1.953,24.902,30.762,60.059,67.871
1568081224.388,17.090,31.250,33.691,16.602,16.602
1568081224.392,36.621,38.574,36.621,1.953,-3.418
1568081224.396,21.973,40.527,41.016,35.645,6.836
1568081224.399,12.695,39.551,41.504,56.152,-23.926
1568081224.403,29.785,34.668,36.133,28.809,-29.785
1568081224.407,48.340,34.180,29.297,1.465,-20.020
1568081224.411,44.922,33.691,26.367,24.902,-44.922
1568081224.415,30.762,37.109,31.738,58.105,3.906
1568081224.419,30.762,38.086,31.738,38.574,18.066
1568081224.423,46.387,39.551,29.785,0.977,27.832
1568081224.427,43.945,43.457,30.273,13.672,30.273
1568081224.431,29.785,46.387,39.551,50.781,35.645
1568081224.435,29.785,45.898,40.527,47.363,72.754
1568081224.439,41.504,42.969,29.297,12.695,15.137
1568081224.442,41.992,39.062,22.949,8.301,22.949
1568081224.446,28.809,34.180,25.879,45.410,64.453
1568081224.450,29.785,34.668,32.227,59.570,50.781
1568081224.454,37.598,32.227,33.691,19.531,31.738
1568081224.458,41.016,32.715,34.180,6.348,52.246
1568081224.462,30.762,32.715,36.621,42.480,27.832
1568081224.466,14.648,32.715,37.598,63.477,8.789
1568081224.470,21.484,28.809,33.691,28.320,76.172
1568081224.474,34.668,28.320,23.926,-6.348,53.711
1568081224.478,24.414,37.598,22.461,20.020,17.090
1568081224.482,4.883,40.039,30.273,52.246,43.457
1568081224.485,10.742,38.086,29.297,28.809,52.246
1568081224.489,33.203,37.598,25.879,-9.766,51.270
1568081224.493,26.367,32.227,32.227,5.859,-10.742
1568081224.497,18.066,27.832,37.109,49.805,-37.109
1568081224.501,23.926,30.273,35.645,49.805,-0.977
1568081224.505,39.062,30.273,32.715,7.324,17.578
1568081224.509,44.434,29.297,30.273,3.418,54.688
1568081224.513,27.344,34.180,28.320,41.016,83.496
1568081224.517,29.785,41.992,32.227,63.965,90.332
1568081224.521,47.363,40.039,32.227,33.691,61.035
1568081224.524,54.199,35.156,25.879,12.207,42.969
1568081224.528,43.457,37.598,27.344,40.039,70.801
1568081224.532,34.180,38.574,34.668,62.988,55.176
1568081224.536,43.457,37.109,30.762,37.598,10.742
1568081224.540,51.758,35.645,26.367,4.883,51.758
1568081224.544,37.598,30.762,25.879,23.438,44.922
1568081224.548,21.973,28.320,29.297,62.500,-4.883
1568081224.552,28.809,33.203,36.133,58.594,55.176
1568081224.556,41.504,32.715,37.598,18.066,82.520
1568081224.560,42.480,32.715,38.574,18.066,40.527
1568081224.564,28.809,32.715,36.133,51.758,97.168
1568081224.567,23.438,27.832,29.297,49.805,52.246
1568081224.571,32.715,31.250,26.855,14.648,-22.461
1568081224.575,36.621,33.203,29.297,7.812,-6.836
1568081224.579,26.367,31.738,32.227,39.062,33.203
1568081224.583,23.926,29.785,31.250,55.664,-0.977
1568081224.587,34.180,27.832,26.367,22.461,-13.184
1568081224.591,42.969,30.762,28.809,-0.488,0.977
1568081224.595,43.945,39.062,36.621,36.621,41.504
1568081224.599,38.574,37.598,38.086,67.383,3.906
1568081224.603,43.457,22.461,32.227,39.551,-43.945
1568081224.607,63.477,21.484,31.250,9.766,64.453
1568081224.610,54.199,26.367,33.691,29.297,83.984
1568081224.614,33.203,28.809,34.668,64.941,35.645
1568081224.618,39.062,30.273,33.203,59.570,11.230
1568081224.622,50.781,30.273,32.715,17.578,-8.301
1568081224.626,46.875,30.762,36.621,11.719,-37.109
1568081224.630,33.691,36.133,36.621,50.293,-45.410
1568081224.634,30.273,35.156,32.227,59.570,18.555
1568081224.638,39.062,28.809,30.762,20.020,42.969
1568081224.642,40.039,29.785,34.668,7.324,5.859
1568081224.646,21.973,27.344,36.621,41.504,5.859
1568081224.649,16.602,25.391,36.621,59.082,48.828
1568081224.653,28.809,28.320,33.203,23.438,80.078
1568081224.657,33.203,34.180,30.762,-2.441,40.527
1568081224.661,24.902,36.621,34.668,22.461,45.898
1568081224.665,5.371,30.273,36.133,44.922,34.668
1568081224.669,1.953,31.738,30.762,25.391,-16.602
1568081224.673,19.043,30.273,27.344,-8.789,-38.086
1568081224.677,24.902,29.297,24.902,6.348,12.695
1568081224.681,9.766,29.297,23.926,44.922,49.805
1568081224.685,6.348,27.832,25.879,40.039,32.227
1568081224.689,31.738,37.109,31.738,5.859,-14.160
1568081224.692,38.574,40.527,37.109,2.441,-26.367
1568081224.696,21.484,37.598,34.668,38.574,-11.230
1568081224.700,20.508,35.645,38.574,51.758,-30.273
1568081224.704,33.691,34.668,38.574,17.090,9.277
1568081224.708,43.945,35.645,31.250,5.859,11.719
1568081224.712,38.086,33.691,30.762,40.527,23.926
1568081224.716,30.762,31.738,30.273,61.523,58.594
1568081224.720,41.992,30.273,28.320,36.621,35.156
1568081224.724,55.664,28.320,29.297,9.277,26.855
1568081224.728,46.387,28.320,35.645,30.762,33.691
1568081224.732,30.273,32.227,41.504,65.430,75.684
1568081224.735,26.855,31.250,38.574,48.340,84.473
1568081224.739,33.691,26.855,33.203,4.883,19.531
1568081224.743,35.645,25.391,34.180,6.836,30.762
1568081224.747,24.902,31.250,34.668,43.945,22.461
1568081224.751,26.367,37.109,29.297,44.922,-5.371
1568081224.755,42.480,39.062,29.785,5.859,16.113
1568081224.759,41.992,36.621,30.762,1.465,-15.137
1568081224.763,26.367,31.250,30.273,38.574,-11.230
1568081224.767,23.438,30.273,37.109,56.641,54.688
1568081224.771,39.551,30.762,41.504,22.461,71.777
1568081224.774,53.711,27.832,39.551,7.324,63.477
1568081224.778,42.969,27.832,35.645,40.039,25.879
1568081224.782,31.250,32.227,27.832,60.059,23.926
1568081224.786,42.969,31.250,25.391,34.668,91.797
1568081224.790,51.270,34.180,28.320,5.371,59.082
1568081224.794,43.457,37.109,32.715,24.414,57.129
1568081224.798,37.598,35.645,37.598,58.594,64.453
1568081224.802,40.527,35.645,35.156,42.969,24.902
1568081224.806,53.711,35.156,31.738,6.348,52.246
1568081224.810,50.293,35.645,36.133,18.555,85.449
1568081224.814,35.156,35.156,39.551,58.594,54.199
1568081224.817,31.250,38.086,31.738,56.641,44.434
1568081224.821,41.016,38.086,21.973,10.254,46.875
1568081224.825,43.457,33.203,21.484,-1.465,-11.719
1568081224.829,21.973,31.738,24.414,33.691,-6.836
1568081224.833,12.695,31.250,22.949,46.387,2.930
1568081224.837,30.273,29.785,22.461,9.277,-0.488
1568081224.841,43.457,36.133,27.344,-6.836,0.977
1568081224.845,37.598,39.062,30.273,27.344,-53.711
1568081224.849,27.832,37.109,30.273,51.270,-27.832
1568081224.853,36.621,41.016,27.344,26.855,29.785
1568081224.857,45.410,43.457,22.949,-6.348,2.930
1568081224.860,40.039,41.016,23.926,16.113,11.230
1568081224.864,37.109,37.598,30.762,59.082,0.488
1568081224.868,41.992,36.621,30.762,50.781,37.598
1568081224.872,50.293,35.156,25.879,17.578,56.152
1568081224.876,48.828,39.062,25.391,19.043,-25.391
1568081224.880,30.762,39.551,22.949,49.805,45.898
1568081224.884,26.367,32.715,17.578,53.711,74.219
1568081224.888,43.945,31.738,20.508,19.043,32.715
1568081224.892,49.316,38.086,29.297,10.254,24.414
1568081224.896,25.879,34.668,28.320,45.410,39.551
1568081224.899,8.789,30.762,28.809,58.594,63.477
1568081224.903,19.043,31.250,31.738,20.020,30.273
1568081224.907,33.691,31.250,29.297,5.371,16.602
1568081224.911,11.230,28.320,31.738,32.715,47.852
1568081224.915,0.977,31.738,37.109,61.035,69.336
1568081224.919,27.344,33.691,30.273,40.527,95.215
1568081224.923,41.504,35.645,20.996,2.441,62.500
1568081224.927,36.133,41.016,20.020,17.090,-16.113
1568081224.931,21.484,33.203,24.902,53.223,1.953
1568081224.935,23.926,23.438,25.391,45.410,48.828
1568081224.939,44.922,24.902,23.926,4.395,7.812
1568081224.942,45.410,29.297,25.879,3.418,-14.648
1568081224.946,30.273,30.273,33.691,42.969,8.789
1568081224.950,29.785,28.809,39.551,57.129,-2.441
1568081224.954,42.969,31.250,33.691,21.484,-18.066
1568081224.958,51.270,34.180,28.320,10.254,-28.809
1568081224.962,36.133,36.133,28.320,43.457,-48.828
1568081224.966,23.438,40.527,30.762,65.430,-32.227
1568081224.970,35.156,39.062,29.297,36.133,27.344
1568081224.974,45.410,29.785,28.320,10.254,36.621
1568081224.978,35.156,25.879,29.785,40.039,72.754
1568081224.982,30.273,32.715,29.785,71.289,66.895
1568081224.985,36.621,34.668,30.762,51.758,45.410
1568081224.989,41.992,33.203,29.785,18.555,58.105
1568081224.993,27.832,33.203,31.250,29.785,52.734
1568081224.997,10.742,31.738,31.250,61.523,70.312
1568081225.001,18.066,34.180,28.320,56.641,46.387
1568081225.005,34.180,33.691,25.879,14.648,5.371
1568081225.009,40.527,30.762,26.855,11.719,-19.043
1568081225.013,29.785,33.203,32.227,57.617,42.969
1568081225.017,23.438,39.551,31.738,73.242,51.270
1568081225.021,39.551,40.039,29.297,34.668,42.480
1568081225.024,46.875,35.645,31.738,19.043,47.363
1568081225.028,28.809,29.297,35.645,48.340,-16.113
1568081225.032,19.043,26.367,38.086,67.383,-18.555
1568081225.036,28.809,33.203,34.668,37.109,6.348
1568081225.040,38.086,33.203,30.273,7.812,-19.043
1568081225.044,31.738,29.297,30.762,34.180,-3.906
1568081225.048,24.902,33.203,30.273,68.848,76.660
1568081225.052,26.367,34.668,28.320,52.734,117.676
1568081225.056,41.504,35.156,25.391,19.043,84.961
1568081225.060,44.922,34.668,28.320,28.320,56.641
1568081225.064,29.297,35.156,38.574,63.477,86.426
1568081225.067,29.297,36.133,40.527,65.430,62.988
1568081225.071,42.480,38.574,33.203,23.438,-23.926
1568081225.075,37.109,34.668,31.738,8.789,7.812
1568081225.079,15.137,30.273,36.133,44.434,58.105
1568081225.083,7.812,31.738,33.203,61.035,38.086
1568081225.087,20.020,23.926,31.250,23.926,13.184
1568081225.091,25.879,20.508,33.691,0.977,7.324
1568081225.095,10.254,24.414,41.016,28.320,48.340
1568081225.099,0.977,25.879,47.363,55.664,89.844
1568081225.103,14.648,26.367,36.621,33.203,30.273
1568081225.107,27.832,27.832,23.926,-1.465,-1.953
1568081225.110,18.066,29.297,28.320,14.648,9.277
1568081225.114,10.742,30.762,35.156,50.781,-7.812
1568081225.118,19.531,29.785,34.668,43.457,-9.277
1568081225.122,33.691,26.367,32.715,7.812,46.875
1568081225.126,37.109,29.297,37.598,15.137,47.363
1568081225.130,24.902,29.785,35.645,52.734,27.344
1568081225.134,23.438,28.809,25.391,55.176,85.938
1568081225.138,34.668,28.320,25.391,19.531,68.359
1568081225.142,42.969,34.180,31.250,13.672,12.207
1568081225.146,31.250,40.039,35.645,51.270,14.160
1568081225.149,20.996,36.621,32.227,66.406,-9.766
1568081225.153,36.621,32.227,25.391,28.320,30.762
1568081225.157,46.387,33.203,27.344,2.441,38.574
1568081225.161,41.016,38.574,34.668,36.621,12.207
1568081225.165,34.180,40.527,37.109,68.359,11.719
1568081225.169,36.133,35.156,34.668,41.992,33.203
1568081225.173,47.852,33.691,32.715,9.766,67.871
1568081225.177,40.039,31.250,30.273,22.461,51.270
1568081225.181,21.484,29.297,31.738,54.199,49.316
1568081225.185,24.902,30.273,31.250,46.387,-15.137
1568081225.189,42.480,34.180,31.738,7.324,-55.176
1568081225.192,48.340,36.133,35.156,12.695,2.441
1568081225.196,36.133,36.133,37.109,53.711,30.273
1568081225.200,32.715,31.738,37.598,62.988,31.250
1568081225.204,48.828,29.785,34.180,26.367,19.043
1568081225.208,52.734,34.668,33.691,10.254,26.367
1568081225.212,39.551,33.203,35.645,44.922,72.266
1568081225.216,35.645,28.809,34.180,67.383,85.938
1568081225.220,43.945,30.273,33.203,36.133,63.965
1568081225.224,58.594,30.273,37.109,11.230,56.641
1568081225.228,58.105,33.691,41.504,38.574,45.898
1568081225.232,38.574,35.645,40.039,63.477,30.273
1568081225.235,41.016,31.738,29.785,41.016,3.906
1568081225.239,54.199,26.367,20.020,-0.488,-21.484
1568081225.243,42.480,27.344,20.508,9.277,15.137
1568081225.247,24.902,31.738,25.879,48.340,29.297
1568081225.251,33.203,34.180,29.785,47.363,17.578
1568081225.255,55.176,38.086,30.762,11.230,71.777
1568081225.259,54.199,41.016,36.133,10.254,35.156
1568081225.263,32.715,42.480,42.480,50.781,-2.441
1568081225.267,22.461,37.598,41.504,56.152,8.301
1568081225.271,34.180,32.715,35.645,17.578,38.574
1568081225.274,47.852,35.645,28.320,7.324,62.500
1568081225.278,30.273,34.180,26.367,37.109,19.043
1568081225.282,9.766,32.715,29.297,51.758,69.824
1568081225.286,26.367,38.086,27.832,28.320,37.109
1568081225.290,39.551,39.551,28.320,8.789,4.395
1568081225.294,30.762,34.668,34.668,36.133,43.945
1568081225.298,20.996,34.180,34.180,66.406,14.160
1568081225.302,21.973,34.668,31.738,46.875,26.367
1568081225.306,36.621,36.133,29.297,10.742,27.344
1568081225.310,40.039,34.180,29.297,19.043,3.418
1568081225.314,25.879,31.738,32.715,58.594,46.387
1568081225.317,21.973,33.691,32.715,61.523,103.516
1568081225.321,39.551,37.109,35.156,23.438,70.801
1568081225.325,38.574,34.180,33.691,16.602,41.504
1568081225.329,15.625,29.785,27.344,45.898,32.715
1568081225.333,11.719,29.785,28.320,49.805,6.836
1568081225.337,24.902,28.809,27.344,13.184,-2.441
1568081225.341,32.227,29.785,26.855,-6.348,0.488
1568081225.345,18.555,30.762,29.297,21.973,-20.020
1568081225.349,8.301,31.250,31.738,46.875,-22.949
1568081225.353,17.090,35.645,34.668,14.160,-15.137
1568081225.357,38.086,47.852,42.969,-4.883,5.859
1568081225.360,34.180,52.734,43.945,18.555,64.941
1568081225.364,0.488,35.156,25.391,26.855,58.105
1568081225.368,4.883,26.367,24.414,11.230,71.777
1568081225.372,18.555,24.414,34.180,-19.531,35.645
1568081225.376,10.254,25.391,36.133,-12.695,35.645
1568081225.380,-1.953,24.902,38.574,25.391,41.016
1568081225.384,-6.836,28.809,46.875,23.438,16.602
1568081225.388,-9.277,24.902,39.551,-27.832,111.328
1568081225.392,-19.531,22.461,30.273,-43.945,57.617
1568081225.396,-28.320,36.621,43.945,-3.418,-38.574
1568081225.399,-34.668,45.898,52.246,5.859,5.859
1568081225.403,-46.387,40.527,41.016,-60.547,17.578
1568081225.407,-64.453,28.320,36.621,-106.934,8.301
1568081225.411,-84.961,41.504,58.105,-75.684,24.902
1568081225.415,-119.629,44.922,68.848,-71.289,4.883
1568081225.419,-140.137,26.367,61.523,-126.465,41.504
1568081225.423,-137.207,27.832,61.523,-166.992,49.805
1568081225.427,-157.715,26.855,72.754,-162.109,67.383
1568081225.431,-189.453,20.508,81.055,-143.555,84.473
1568081225.435,-206.055,12.207,74.219,-168.945,52.734
1568081225.439,-179.688,20.508,78.125,-199.707,11.230
1568081225.442,-169.922,18.066,77.148,-194.824,-4.883
1568081225.446,-189.453,6.348,71.777,-163.086,17.578
1568081225.450,-193.848,8.301,69.336,-161.621,8.301
1568081225.454,-173.828,9.277,71.777,-197.754,67.871
1568081225.458,-163.574,12.695,71.777,-203.613,112.305
1568081225.462,-169.434,11.230,71.777,-152.832,49.316
1568081225.466,-166.992,8.789,72.266,-120.117,-29.785
1568081225.470,-152.832,10.742,69.824,-146.973,4.395
1568081225.474,-129.395,6.348,68.848,-157.227,79.590
1568081225.478,-128.418,3.906,64.453,-125.977,107.910
1568081225.482,-134.766,4.395,65.430,-92.773,72.754
1568081225.485,-107.910,4.395,68.359,-86.914,42.480
1568081225.489,-76.172,6.348,64.941,-105.957,59.570
1568081225.493,-82.031,6.348,60.059,-94.727,19.531
1568081225.497,-88.379,8.301,60.547,-46.387,21.973
1568081225.501,-73.730,15.625,57.129,-41.016,53.223
1568081225.505,-47.852,18.555,45.410,-78.125,39.551
1568081225.509,-43.457,10.742,40.039,-76.660,-4.395
1568081225.513,-55.664,6.836,29.785,-34.180,-7.324
1568081225.517,-41.504,5.371,26.855,-10.254,-18.066
1568081225.521,-21.484,4.883,33.691,-35.156,-46.875
1568081225.524,6.836,6.348,33.691,-27.832,1.465
1568081225.528,22.949,12.207,36.621,32.715,32.227
1568081225.532,17.578,12.207,39.062,62.012,31.738
1568081225.536,42.969,15.625,35.645,41.992,33.691
1568081225.540,68.848,22.949,33.203,32.227,12.695
1568081225.544,55.664,20.020,26.367,54.199,43.457
1568081225.548,50.293,20.020,20.508,86.426,80.078
1568081225.552,60.059,21.973,17.578,81.055,45.410
1568081225.556,68.359,24.902,12.695,50.781,11.719
1568081225.560,78.125,24.414,14.160,72.266,19.043
1568081225.564,79.590,26.367,11.719,113.770,4.883
1568081225.567,82.520,30.273,8.789,106.934,-6.836
1568081225.571,95.215,30.762,7.812,69.824,-30.762
1568081225.575,95.703,35.645,5.371,65.918,-25.879
1568081225.579,77.637,41.504,2.441,105.469,49.316
1568081225.583,79.590,42.969,2.441,126.953,46.387
1568081225.587,98.633,43.457,-0.977,89.844,-28.809
1568081225.591,104.004,47.363,-2.930,68.359,-27.832
1568081225.595,88.379,50.293,0.977,101.074,12.207
1568081225.599,75.195,48.340,1.953,123.535,51.270
1568081225.603,86.426,42.969,0.000,101.562,100.586
1568081225.607,109.863,40.039,-2.441,84.473,61.035
1568081225.610,104.004,40.039,0.977,104.492,29.297
1568081225.614,83.984,40.527,5.371,132.812,44.434
1568081225.618,88.379,41.992,2.441,123.047,11.230
1568081225.622,102.051,42.969,-2.930,83.496,-7.324
1568081225.626,97.656,40.527,-3.418,88.379,11.719
1568081225.630,84.961,43.457,3.418,130.859,-23.438
1568081225.634,82.031,49.316,8.789,133.301,46.875
1568081225.638,88.867,50.293,6.348,85.938,82.031
1568081225.642,87.891,48.340,7.812,74.219,44.434
1568081225.646,70.312,44.922,11.230,112.793,56.641
1568081225.649,60.547,42.969,8.789,126.953,55.176
1568081225.653,75.195,47.363,3.418,90.332,56.641
1568081225.657,84.473,49.805,6.348,69.336,32.715
1568081225.661,69.336,46.387,6.836,101.562,53.711
1568081225.665,57.129,46.387,2.441,127.441,33.203
1568081225.669,71.777,48.828,2.930,100.586,30.273
1568081225.673,86.914,48.340,4.883,70.801,40.039
1568081225.677,76.660,46.387,12.207,95.215,83.496
1568081225.681,57.617,43.945,19.531,132.324,42.480
1568081225.685,58.105,40.527,19.531,116.211,42.969
1568081225.689,74.707,39.551,19.043,76.172,44.922
1568081225.692,77.148,39.551,22.461,75.684,19.531
1568081225.696,66.895,38.574,24.902,114.258,53.223
1568081225.700,68.359,42.480,24.414,119.629,31.738
1568081225.704,86.914,44.434,20.020,72.266,1.953
1568081225.708,93.262,43.945,16.602,62.988,-43.457
1568081225.712,81.543,42.969,22.461,104.004,0.977
1568081225.716,72.754,37.109,26.855,115.723,28.320
1568081225.720,79.590,35.645,20.508,74.219,18.555
1568081225.724,87.891,40.039,14.160,46.875,76.660
1568081225.728,83.008,42.480,15.625,74.219,46.875
1568081225.732,73.730,42.480,20.996,101.562,18.066
1568081225.735,78.125,42.969,20.996,77.637,97.656
1568081225.739,91.309,41.504,23.926,45.410,48.828
1568081225.743,85.449,39.062,28.809,62.500,6.836
1568081225.747,76.172,42.480,28.809,98.633,57.129
1568081225.751,78.613,40.527,24.902,87.891,0.000
1568081225.755,86.914,35.156,20.996,50.781,3.418
1568081225.759,82.520,36.133,22.461,51.758,47.852
1568081225.763,63.965,36.133,24.902,85.938,17.578
1568081225.767,59.082,33.691,26.855,93.262,28.809
1568081225.771,72.754,30.762,22.461,53.223,22.461
1568081225.774,76.172,27.832,20.020,33.203,2.930
1568081225.778,66.895,33.203,30.762,69.824,3.906
1568081225.782,60.059,38.086,33.203,88.379,-16.113
1568081225.786,60.547,35.645,22.461,42.480,-16.113
1568081225.790,68.848,35.156,20.020,18.066,22.949
1568081225.794,60.547,35.645,22.461,42.969,-19.043
1568081225.798,50.781,35.156,25.391,76.172,-30.273
1568081225.802,59.082,34.668,27.344,66.895,26.367
1568081225.806,69.336,37.109,25.879,31.738,27.832
1568081225.810,70.801,38.574,27.344,50.781,6.836
1568081225.814,56.152,33.691,27.344,84.961,44.434
1568081225.817,58.105,37.598,31.738,80.566,105.469
1568081225.821,72.754,40.039,37.109,46.875,55.664
1568081225.825,70.312,37.598,33.203,41.992,-12.207
1568081225.829,56.641,37.598,31.738,75.684,35.156
1568081225.833,49.316,34.180,33.203,85.938,73.730
1568081225.837,66.406,33.203,33.691,48.828,48.828
1568081225.841,77.637,37.598,29.297,31.738,103.516
1568081225.845,57.617,39.551,24.414,63.965,47.852
1568081225.849,50.781,42.480,25.879,84.473,-19.043
1568081225.853,60.547,44.434,28.320,55.176,-1.953
1568081225.857,70.312,45.898,31.250,32.715,30.273
1568081225.860,60.547,44.434,36.621,60.547,30.762
1568081225.864,36.621,38.086,36.133,81.055,10.254
1568081225.868,42.969,32.227,29.785,62.500,46.875
1568081225.872,56.152,29.785,27.832,30.762,62.012
1568081225.876,44.922,30.762,28.809,32.715,73.730
1568081225.880,32.715,32.227,34.180,66.406,10.742
1568081225.884,28.809,31.738,37.598,66.406,51.758
1568081225.888,47.852,33.691,38.574,36.621,67.383
1568081225.892,54.688,32.227,43.457,39.062,29.297
1568081225.896,36.133,27.832,43.945,68.359,45.898
1568081225.899,35.156,34.180,38.574,77.148,-4.883
1568081225.903,50.781,38.086,31.738,38.574,-37.109
1568081225.907,61.523,34.668,29.785,14.160,-34.668
1568081225.911,51.758,34.180,30.762,48.340,-6.836
1568081225.915,39.062,34.180,33.691,75.684,44.922
1568081225.919,51.270,34.180,36.133,48.828,78.125
1568081225.923,73.730,38.574,36.621,21.484,79.102
1568081225.927,66.406,41.992,33.203,37.598,6.348
1568081225.931,42.969,39.062,29.785,67.383,-51.758
1568081225.935,41.992,37.109,32.227,58.105,-53.223
1568081225.939,58.105,37.598,29.297,22.461,-36.133
1568081225.942,51.270,36.133,27.832,21.973,-40.039
1568081225.946,28.809,33.691,33.203,59.570,-40.527
1568081225.950,20.996,29.785,33.691,62.500,17.578
1568081225.954,32.715,28.809,30.762,13.184,25.879
1568081225.958,41.016,28.320,32.715,2.441,6.836
1568081225.962,30.273,30.273,29.785,42.969,16.602
1568081225.966,27.832,32.715,20.996,54.199,47.852
1568081225.970,40.039,30.762,20.020,8.301,30.273
1568081225.974,49.316,32.227,26.367,-9.766,31.738
1568081225.978,40.527,37.598,31.738,30.273,31.738
1568081225.982,27.832,33.691,30.273,54.199,47.852
1568081225.985,39.062,30.273,28.320,27.832,109.375
1568081225.989,54.688,34.668,25.391,-0.977,90.820
1568081225.993,45.410,33.691,25.879,20.020,61.523
1568081225.997,29.785,35.156,27.832,57.617,63.965
1568081226.001,36.621,36.133,24.414,43.945,69.824
1568081226.005,52.246,33.691,24.414,1.465,65.918
1568081226.009,56.641,33.691,27.344,9.766,75.684
1568081226.013,49.316,38.574,28.809,54.688,90.332
1568081226.017,48.828,45.410,28.809,67.383,57.617
1568081226.021,64.941,44.922,26.855,28.320,-24.902
1568081226.024,70.312,38.574,26.855,14.160,2.441
1568081226.028,53.223,38.574,29.785,54.199,-16.113
1568081226.032,44.434,41.992,34.180,73.242,-6.836
1568081226.036,56.152,43.457,32.715,37.109,42.969
1568081226.040,63.965,40.527,27.344,8.301,-39.062
1568081226.044,43.945,36.133,27.344,32.227,-37.109
1568081226.048,28.320,34.668,24.902,57.617,-12.207
1568081226.052,40.527,39.551,27.344,35.645,-13.184
1568081226.056,52.246,38.086,29.297,1.465,26.367
1568081226.060,42.969,29.297,24.414,11.719,34.180
1568081226.064,26.855,24.902,24.414,45.410,20.020
1568081226.067,29.297,28.809,22.949,40.039,-3.906
1568081226.071,46.387,30.273,15.625,2.441,4.883
1568081226.075,47.852,29.785,13.672,7.324,11.719
1568081226.079,37.598,32.715,23.926,51.758,-18.066
1568081226.083,43.457,36.621,35.645,67.871,0.488
1568081226.087,57.617,41.504,38.086,31.738,61.035
1568081226.091,60.547,45.410,33.203,17.578,61.523
1568081226.095,45.410,46.875,29.785,54.199,23.438
1568081226.099,33.691,38.574,32.227,73.242,32.227
1568081226.103,46.387,35.645,34.180,45.898,43.457
1568081226.107,60.059,39.551,34.668,20.996,11.719
1568081226.110,46.875,33.691,36.133,38.574,9.766
1568081226.114,29.297,34.180,34.668,71.289,41.504
1568081226.118,34.668,36.621,34.180,53.711,22.461
1568081226.122,46.387,32.227,33.203,12.695,32.227
1568081226.126,41.504,34.180,32.715,27.832,26.855
1568081226.130,24.902,41.016,33.691,64.453,-13.672
1568081226.134,25.391,43.945,29.785,58.105,26.855
1568081226.138,26.367,38.086,28.809,5.859,19.531
1568081226.142,3.906,36.133,27.832,-10.742,29.785
1568081226.146,-17.090,39.062,30.273,32.715,49.316
1568081226.149,-23.438,37.109,36.133,41.992,-1.465
1568081226.153,-9.277,34.180,35.645,0.977,-5.371
1568081226.157,10.254,35.156,32.715,-4.395,4.883
1568081226.161,4.883,36.621,30.762,38.574,-4.883
1568081226.165,-2.930,38.086,31.250,62.988,47.852
1568081226.169,6.836,41.992,33.203,35.156,99.121
1568081226.173,13.184,44.434,32.227,7.324,65.918
1568081226.177,3.906,41.504,36.133,32.227,41.992
1568081226.181,0.488,40.527,39.551,71.289,48.828
1568081226.185,7.324,40.527,39.062,59.082,20.996
1568081226.189,16.602,35.645,39.062,20.020,-42.969
1568081226.192,19.043,36.133,39.062,30.762,4.883
1568081226.196,-1.465,38.574,38.086,64.453,45.410
1568081226.200,-10.742,37.109,37.109,62.012,47.852
1568081226.204,2.930,34.180,37.598,25.391,104.004
1568081226.208,1.465,36.621,37.109,19.043,70.801
1568081226.212,-14.160,32.715,31.250,54.688,40.527
1568081226.216,-25.391,25.879,32.227,60.059,42.969
1568081226.220,-14.160,29.297,35.156,19.531,32.715
1568081226.224,-1.953,31.738,32.715,1.465,-1.953
1568081226.228,-16.113,32.715,31.738,30.762,8.301
1568081226.232,-28.320,31.738,32.715,58.594,33.203
1568081226.235,-15.625,32.227,29.297,34.180,29.297
1568081226.239,0.000,35.156,27.832,0.977,24.414
1568081226.243,-8.789,32.227,33.203,21.973,79.590
1568081226.247,-21.973,33.203,39.551,61.523,80.078
1568081226.251,-7.324,36.133,40.527,52.734,25.879
1568081226.255,9.766,32.715,35.645,17.090,71.777
1568081226.259,9.766,32.227,26.855,19.043,59.082
1568081226.263,2.930,30.762,24.414,52.246,19.531
1568081226.267,10.254,36.133,30.273,63.965,61.523
1568081226.271,29.785,39.551,31.738,26.367,53.711
1568081226.274,34.668,33.203,29.785,7.324,36.133
1568081226.278,20.996,33.691,34.180,41.504,23.438
1568081226.282,14.160,35.645,38.086,62.500,23.438
1568081226.286,27.832,34.180,35.645,30.762,29.297
1568081226.290,39.551,33.691,35.645,10.742,-10.742
1568081226.294,25.391,30.273,35.645,41.992,-8.789
1568081226.298,10.254,29.297,33.691,67.383,73.730
1568081226.302,16.602,30.273,29.297,38.574,82.520
1568081226.306,23.438,30.273,25.879,2.930,22.949
1568081226.310,15.625,34.668,33.203,20.508,0.000
1568081226.314,9.277,39.551,41.504,54.688,20.996
1568081226.317,11.719,36.621,38.574,41.992,4.395
1568081226.321,19.531,28.320,28.320,-1.953,13.184
1568081226.325,12.207,27.832,25.391,1.953,28.809
1568081226.329,-10.254,31.250,28.809,43.945,-2.930
1568081226.333,-8.789,32.715,27.832,50.781,-46.875
1568081226.337,7.812,31.738,24.414,12.695,0.977
1568081226.341,20.020,33.691,26.367,0.977,50.781
1568081226.345,13.672,36.621,33.691,44.922,37.109
1568081226.349,10.254,40.527,37.109,66.895,37.109
1568081226.353,20.508,43.945,35.156,32.715,69.824
1568081226.357,32.227,39.551,31.738,11.719,63.477
1568081226.360,26.367,33.203,29.297,37.109,20.020
1568081226.364,8.301,34.180,30.273,61.523,9.277
1568081226.368,8.789,35.156,29.297,40.039,22.461
1568081226.372,28.320,32.227,27.832,7.812,29.785
1568081226.376,27.344,33.691,34.668,18.555,52.246
1568081226.380,4.883,33.203,34.668,49.316,36.133
1568081226.384,6.348,25.391,23.438,44.434,-9.277
1568081226.388,28.320,28.809,18.555,1.953,-40.527
1568081226.392,32.227,35.645,25.879,0.000,-54.688
1568081226.396,18.066,32.715,29.785,44.434,27.832
1568081226.399,12.207,30.762,25.879,57.129,89.844
1568081226.403,20.020,28.809,28.809,15.625,39.551
1568081226.407,27.832,24.414,34.180,-6.836,-29.297
1568081226.411,13.672,22.949,32.715,24.902,-4.883
1568081226.415,1.953,24.414,29.785,48.340,44.922
1568081226.419,8.789,20.508,27.832,15.625,37.598
1568081226.423,22.949,23.438,29.785,-10.742,60.547
1568081226.427,21.973,25.879,30.762,18.555,75.684
1568081226.431,12.695,29.785,26.855,51.758,9.277
1568081226.435,19.531,30.273,26.855,37.109,-8.789
1568081226.439,41.504,26.855,31.738,10.742,36.133
1568081226.442,47.852,29.297,30.273,23.438,17.578
1568081226.446,21.484,27.344,27.832,56.152,-42.969
1568081226.450,4.883,22.949,26.367,54.199,28.809
1568081226.454,28.809,27.344,24.414,12.207,53.223
1568081226.458,36.133,28.320,27.344,1.465,-18.555
1568081226.462,21.973,26.367,32.227,38.574,-18.066
1568081226.466,20.996,21.973,36.133,48.828,-18.555
1568081226.470,28.320,19.043,33.203,6.836,6.836
1568081226.474,37.109,23.926,24.414,-11.719,42.969
1568081226.478,30.762,26.855,25.391,28.809,108.398
1568081226.482,26.855,30.273,26.855,56.641,100.586
1568081226.485,37.598,27.832,19.043,24.414,76.660
1568081226.489,46.875,28.809,20.020,-4.883,93.750
1568081226.493,36.621,30.762,27.832,18.066,29.297
1568081226.497,25.391,29.297,31.738,52.734,34.668
1568081226.501,24.902,29.297,27.344,38.086,13.184
1568081226.505,28.809,28.809,29.297,3.418,-13.184
1568081226.509,34.180,32.227,35.156,12.207,20.020
1568081226.513,23.438,33.691,33.691,46.387,-2.441
1568081226.517,13.184,28.320,32.227,47.852,11.719
1568081226.521,20.996,26.367,30.273,12.207,73.730
1568081226.524,28.809,31.250,28.320,8.301,106.934
1568081226.528,18.066,34.180,29.785,44.922,60.059
1568081226.532,9.277,30.762,28.809,56.152,11.719
1568081226.536,22.949,30.762,24.414,18.066,38.086
1568081226.540,35.156,33.203,24.902,2.441,53.711
1568081226.544,29.297,30.762,30.762,36.133,62.500
1568081226.548,13.672,28.320,33.691,59.570,52.734
1568081226.552,19.531,32.227,39.062,47.852,6.836
1568081226.556,36.133,32.715,40.039,14.648,57.617
1568081226.560,24.414,27.344,34.180,18.555,42.969
1568081226.564,5.371,24.902,34.668,59.082,-0.488
1568081226.567,3.418,21.973,35.645,50.781,38.086
1568081226.571,8.789,17.578,27.832,6.348,2.441
1568081226.575,12.207,20.020,26.367,10.742,-11.719
1568081226.579,4.395,25.391,29.785,52.734,-0.977
1568081226.583,-1.953,27.344,27.832,59.082,-18.555
1568081226.587,9.766,27.832,27.344,19.531,-37.109
1568081226.591,16.113,25.879,28.320,4.883,-8.301
1568081226.595,14.648,30.273,28.809,37.598,46.875
1568081226.599,16.113,36.133,29.785,61.523,41.016
1568081226.603,20.508,34.668,31.250,32.715,31.738
1568081226.607,30.762,30.762,37.109,13.184,56.152
1568081226.610,27.344,27.832,44.434,44.434,52.734
1568081226.614,5.859,28.809,41.016,70.312,44.434
1568081226.618,14.160,34.180,30.273,54.199,50.293
1568081226.622,35.156,34.668,25.391,14.648,21.973
1568081226.626,29.297,30.762,24.414,21.973,-43.457
1568081226.630,14.648,30.762,25.879,57.129,10.254
1568081226.634,14.160,33.691,32.715,51.758,70.312
1568081226.638,24.414,32.715,37.109,15.137,14.648
1568081226.642,17.090,27.344,29.785,7.324,21.973
1568081226.646,10.254,25.879,23.438,39.062,74.707
1568081226.649,11.719,28.809,28.320,53.223,72.266
1568081226.653,27.344,26.855,26.367,19.043,51.270
1568081226.657,39.551,26.855,22.949,-0.488,45.410
1568081226.661,31.738,28.809,26.367,27.344,31.738
1568081226.665,24.902,31.738,31.738,56.152,20.508
1568081226.669,37.598,34.180,38.086,31.250,8.301
1568081226.673,55.664,24.902,37.598,3.418,36.133
1568081226.677,49.316,21.484,34.180,28.320,22.949
1568081226.681,31.738,25.391,32.227,61.523,17.090
1568081226.685,35.156,28.809,33.203,48.828,97.168
1568081226.689,53.223,29.297,35.156,17.090,79.590
1568081226.692,47.363,28.809,38.574,25.391,43.457
1568081226.696,32.715,28.320,42.969,60.547,22.461
1568081226.700,29.785,27.344,38.574,62.500,29.297
1568081226.704,37.598,31.738,31.250,22.461,8.789
1568081226.708,45.898,34.668,28.320,20.508,-4.395
1568081226.712,30.273,30.273,33.203,61.035,12.207
1568081226.716,25.879,27.832,38.574,74.219,24.902
1568081226.720,48.828,25.879,43.945,39.062,50.293
1568081226.724,61.523,26.855,44.922,21.973,77.637
1568081226.728,39.551,28.320,39.062,45.410,61.523
1568081226.732,20.020,30.273,36.621,54.688,50.781
1568081226.735,26.855,35.645,40.039,20.996,49.316
1568081226.739,30.273,43.457,35.156,-13.184,63.965
1568081226.743,19.043,44.922,26.855,6.348,105.957
1568081226.747,6.348,44.922,30.273,40.527,44.922
1568081226.751,7.812,41.504,32.715,30.273,-20.996
1568081226.755,22.461,35.156,25.879,-0.488,-1.953
1568081226.759,21.484,36.133,21.973,10.742,20.020
1568081226.763,5.859,41.016,24.414,49.316,22.949
1568081226.767,8.301,39.551,24.902,58.105,59.082
1568081226.771,13.672,34.668,21.973,18.066,21.484
1568081226.774,15.137,32.227,28.809,9.277,12.207
1568081226.778,10.254,27.832,35.156,51.270,46.387
1568081226.782,-2.930,24.902,29.297,61.035,4.395
1568081226.786,11.719,28.809,26.855,26.367,25.879
1568081226.790,32.715,32.715,30.273,10.742,45.898
1568081226.794,17.090,29.785,35.156,40.039,26.367
1568081226.798,5.371,28.320,37.109,66.406,68.359
1568081226.802,22.461,22.949,34.668,46.875,47.363
1568081226.806,37.598,19.531,37.109,19.043,7.324
1568081226.810,29.297,21.973,41.016,38.086,-5.371
1568081226.814,13.184,23.438,41.992,73.242,64.941
1568081226.817,16.602,27.344,40.039,63.965,73.242
1568081226.821,23.926,25.879,38.574,27.832,26.855
1568081226.825,18.066,21.484,41.992,26.367,9.766
1568081226.829,-1.953,22.461,42.480,53.711,33.203
1568081226.833,-12.207,24.414,39.551,54.199,20.508
1568081226.837,7.812,23.926,37.109,13.184,13.184
1568081226.841,24.414,24.414,31.738,0.488,57.129
1568081226.845,13.184,28.320,27.344,33.691,37.598
1568081226.849,10.742,30.273,24.414,51.270,31.738
1568081226.853,27.832,32.715,27.832,29.297,24.414
1568081226.857,43.945,41.504,32.227,12.207,3.906
1568081226.860,38.574,42.969,31.738,35.156,-33.691
1568081226.864,34.180,39.551,34.668,62.500,-10.742
1568081226.868,42.969,41.016,32.227,35.156,23.926
1568081226.872,49.805,37.109,25.879,-9.766,8.301
1568081226.876,36.133,34.180,20.020,-5.859,19.043
1568081226.880,22.949,34.180,18.555,26.367,15.625
1568081226.884,15.137,31.738,15.625,19.043,17.090
1568081226.888,23.926,33.691,11.230,-15.625,-30.762
1568081226.892,32.715,39.551,15.137,-13.184,-32.227
1568081226.896,28.809,47.363,19.043,27.832,33.691
1568081226.899,32.227,47.363,20.996,36.133,23.926
1568081226.903,37.598,39.062,19.531,-2.930,-30.762
1568081226.907,46.875,35.645,22.461,-14.160,-24.902
1568081226.911,36.133,38.086,35.645,26.855,15.625
1568081226.915,22.949,38.574,35.645,47.363,63.965
1568081226.919,29.297,32.227,20.996,6.836,84.961
1568081226.923,37.598,25.879,18.555,-18.555,26.367
1568081226.927,20.020,25.391,21.973,12.207,9.766
1568081226.931,2.441,22.949,24.414,44.434,17.578
1568081226.935,9.766,24.902,23.926,26.367,-9.277
1568081226.939,34.180,32.227,24.414,-3.906,37.598
1568081226.942,38.574,30.762,24.414,11.230,39.062
1568081226.946,28.809,30.273,26.855,46.387,-12.207
1568081226.950,39.062,33.691,33.203,49.805,23.438
1568081226.954,62.500,34.180,25.879,11.719,19.043
1568081226.958,66.406,35.645,18.555,9.766,0.977
1568081226.962,53.711,36.621,19.531,50.781,29.785
1568081226.966,49.316,35.156,14.648,56.641,87.402
1568081226.970,48.340,29.785,9.766,15.137,60.547
1568081226.974,53.223,30.762,12.207,-5.371,15.137
1568081226.978,43.457,36.133,19.043,30.273,29.297
1568081226.982,26.855,31.250,22.949,52.246,38.086
1568081226.985,44.922,33.691,20.996,20.996,72.754
1568081226.989,56.641,33.691,16.602,-9.277,56.641
1568081226.993,41.016,31.738,18.555,19.043,33.691
1568081226.997,19.531,36.621,23.438,55.664,22.461
1568081227.001,17.090,38.086,25.391,40.039,33.203
1568081227.005,38.086,40.039,24.902,5.371,26.367
1568081227.009,35.156,37.109,26.367,15.137,-3.906
1568081227.013,9.766,32.715,25.391,52.734,32.715
1568081227.017,10.742,32.227,19.043,51.270,48.340
1568081227.021,18.555,29.785,16.113,9.277,54.199
1568081227.024,12.695,27.832,20.508,5.859,62.988
1568081227.028,6.836,31.250,25.391,46.875,66.895
1568081227.032,6.836,34.180,28.809,64.941,61.523
1568081227.036,17.578,34.668,30.762,32.227,71.289
1568081227.040,34.668,33.691,30.273,9.766,19.043
1568081227.044,27.344,36.621,28.809,36.621,-37.598
1568081227.048,20.020,40.039,25.879,66.406,49.805
1568081227.052,32.715,41.992,29.297,42.969,49.805
1568081227.056,42.969,39.062,30.273,5.371,13.184
1568081227.060,44.922,39.551,31.250,27.832,59.082
1568081227.064,36.621,39.062,30.762,62.988,41.992
1568081227.067,42.480,35.156,28.320,49.805,-5.371
1568081227.071,64.453,37.598,25.391,7.324,58.594
1568081227.075,62.012,35.645,25.879,0.488,55.176
1568081227.079,40.527,35.156,30.762,31.250,71.777
1568081227.083,33.203,32.715,33.203,38.574,18.066
1568081227.087,40.039,31.250,28.320,-2.930,-78.613
1568081227.091,47.363,31.250,21.484,-17.578,-32.715
1568081227.095,40.039,29.297,29.297,30.762,41.992
1568081227.099,36.133,30.762,35.156,53.223,50.293
1568081227.103,50.781,31.738,28.320,18.555,80.566
1568081227.107,57.617,30.273,21.973,-4.883,40.527
1568081227.110,41.992,27.344,19.531,21.484,-14.160
1568081227.114,31.250,25.879,18.555,51.270,19.043
1568081227.118,37.109,27.832,18.555,28.809,24.902
1568081227.122,47.852,32.715,27.344,2.441,46.875
1568081227.126,48.340,33.691,36.133,18.066,35.645
1568081227.130,44.922,27.832,37.598,50.293,26.367
1568081227.134,50.781,24.902,33.691,47.852,39.551
1568081227.138,64.941,26.855,26.367,14.160,57.129
1568081227.142,64.453,32.715,26.855,14.160,45.898
1568081227.146,53.223,36.133,27.832,48.828,-13.184
1568081227.149,57.617,35.645,30.273,58.594,23.438
1568081227.153,74.707,40.039,32.715,20.020,58.105
1568081227.157,76.660,41.016,32.715,7.324,22.461
1568081227.161,62.500,42.969,31.738,42.480,34.668
1568081227.165,55.664,43.457,24.902,57.129,22.949
1568081227.169,64.453,39.062,20.508,15.137,-6.836
1568081227.173,73.242,40.039,20.508,-12.207,-6.836
1568081227.177,65.918,41.992,22.461,20.996,28.320
1568081227.181,48.340,32.227,23.926,45.898,64.941
1568081227.185,49.316,29.785,27.344,20.996,36.133
1568081227.189,60.547,32.227,28.809,-7.812,39.551
1568081227.192,49.805,27.832,28.809,5.371,54.688
1568081227.196,38.086,25.879,26.855,41.504,37.109
1568081227.200,45.898,29.785,25.879,42.969,58.594
1568081227.204,60.059,27.832,25.879,8.789,22.461
1568081227.208,58.105,25.879,25.879,4.883,-25.879
1568081227.212,48.340,27.344,26.367,41.504,-10.742
1568081227.216,42.480,25.879,31.250,56.152,39.062
1568081227.220,52.246,22.949,39.062,16.602,29.297
1568081227.224,61.523,21.973,36.133,-3.418,36.621
1568081227.228,44.434,25.391,30.762,30.762,61.523
1568081227.232,33.691,28.809,31.250,53.711,25.879
1568081227.235,41.504,28.320,26.855,17.090,13.184
1568081227.239,55.176,25.879,26.855,-9.277,-7.812
1568081227.243,58.105,29.785,34.180,23.438,3.418
1568081227.247,45.410,30.762,32.227,62.988,20.996
1568081227.251,44.434,30.762,25.391,50.781,38.086
1568081227.255,63.965,32.715,22.949,14.160,45.898
1568081227.259,68.848,33.203,25.879,24.902,32.227
1568081227.263,45.410,27.344,30.273,56.152,41.504
1568081227.267,39.551,21.973,29.785,55.176,87.402
1568081227.271,52.246,29.785,31.250,13.184,46.387
1568081227.274,56.641,36.133,38.574,-1.465,-12.207
1568081227.278,41.504,32.227,37.598,32.715,0.488
1568081227.282,36.133,28.809,30.762,49.316,20.996
1568081227.286,43.945,30.273,25.391,15.137,-9.277
1568081227.290,52.246,31.250,22.461,-0.977,-34.668
1568081227.294,47.852,29.297,20.508,36.621,27.344
1568081227.298,37.598,30.762,26.855,63.965,54.199
1568081227.302,45.898,34.180,29.785,36.621,48.828
1568081227.306,62.500,37.109,31.250,11.230,1.465
1568081227.310,59.082,38.086,38.086,35.645,45.410
1568081227.314,47.852,31.738,38.086,65.918,102.539
1568081227.317,50.293,28.809,27.832,49.316,52.734
1568081227.321,60.547,31.250,21.973,11.719,41.016
1568081227.325,59.570,34.668,30.762,18.555,23.926
1568081227.329,44.922,35.645,35.645,59.570,-20.996
1568081227.333,43.945,30.273,31.738,66.406,4.883
1568081227.337,53.711,31.250,30.273,21.484,50.781
1568081227.341,57.129,33.691,33.203,11.719,44.434
1568081227.345,42.480,34.180,31.250,50.293,50.781
1568081227.349,30.273,39.062,26.855,60.059,37.598
1568081227.353,41.016,38.086,24.902,22.461,18.555
1568081227.357,47.852,32.715,24.414,-0.488,4.395
1568081227.360,38.086,25.391,24.902,29.785,23.438
1568081227.364,29.785,22.949,30.273,54.688,45.898
1568081227.368,34.668,29.785,39.062,29.297,65.918
1568081227.372,43.457,31.250,36.133,1.465,104.004
1568081227.376,36.621,34.180,28.320,21.973,61.035
1568081227.380,21.973,39.062,31.250,54.199,5.859
1568081227.384,26.855,36.621,29.297,48.828,13.672
1568081227.388,45.410,35.156,28.320,17.090,6.836
1568081227.392,48.828,35.156,34.668,23.438,-26.855
1568081227.396,30.273,33.203,34.180,55.664,-20.508
1568081227.399,26.855,34.668,30.273,59.570,5.859
1568081227.403,46.387,33.203,27.832,20.996,-7.812
1568081227.407,51.758,26.855,26.367,8.301,-50.781
1568081227.411,36.621,29.785,30.762,43.945,-59.570
1568081227.415,27.344,34.180,34.180,61.523,8.789
1568081227.419,41.016,34.180,32.715,33.203,53.223
1568081227.423,54.199,32.227,35.645,12.207,26.367
1568081227.427,41.504,31.738,32.227,37.598,24.902
1568081227.431,28.809,32.227,28.809,62.988,16.602
1568081227.435,39.062,32.715,30.762,40.039,9.277
1568081227.439,56.152,34.668,31.250,8.301,17.090
1568081227.442,53.711,36.133,31.250,20.996,47.852
1568081227.446,32.715,40.039,33.691,52.734,20.996
1568081227.450,31.250,36.621,35.645,46.875,0.977
1568081227.454,46.387,32.715,34.668,5.859,34.180
1568081227.458,46.875,34.668,34.180,0.488,49.805
1568081227.462,33.203,34.668,26.367,35.156,-1.953
1568081227.466,27.344,34.668,19.043,43.457,5.371
1568081227.470,40.527,34.180,25.879,15.137,55.664
1568081227.474,47.852,33.203,32.715,7.324,47.852
1568081227.478,37.598,33.691,31.738,39.551,33.691
1568081227.482,34.180,31.250,30.762,63.477,51.758
1568081227.485,43.457,28.809,31.250,36.133,30.762
1568081227.489,50.781,32.715,25.391,8.789,22.949
1568081227.493,41.504,33.203,19.531,29.297,47.852
1568081227.497,31.738,35.645,23.926,61.035,22.949
1568081227.501,36.133,35.156,25.391,45.410,40.527
1568081227.505,52.734,31.738,25.391,12.695,55.176
1568081227.509,47.852,33.203,31.250,23.438,51.758
1568081227.513,32.227,30.273,38.574,59.082,-3.906
1568081227.517,35.645,31.250,33.691,55.176,-24.414
1568081227.521,51.270,38.574,26.367,17.090,31.738
1568081227.524,54.199,39.062,29.297,8.789,12.695
1568081227.528,35.645,36.133,31.738,43.457,22.461
1568081227.532,28.809,36.621,30.762,59.082,66.406
1568081227.536,42.969,35.645,32.227,21.973,96.191
1568081227.540,52.734,36.133,35.645,4.883,65.918
1568081227.544,41.992,35.156,34.180,34.180,4.395
1568081227.548,25.879,30.273,28.809,52.734,-18.555
1568081227.552,30.762,30.762,26.855,27.344,-15.137
1568081227.556,49.805,31.738,26.855,4.395,39.551
1568081227.560,46.875,30.273,27.832,23.438,107.910
1568081227.564,30.762,32.715,32.227,58.594,131.836
1568081227.567,39.062,32.227,40.527,53.223,70.801
1568081227.571,54.688,29.297,45.898,15.625,50.293
1568081227.575,52.246,30.762,41.504,23.438,41.016
1568081227.579,46.875,36.621,34.668,68.359,34.180
1568081227.583,48.340,36.621,32.227,70.312,71.777
1568081227.587,60.059,33.691,35.645,27.832,-8.301
1568081227.591,63.965,37.598,41.016,22.949,-26.855
1568081227.595,51.270,36.133,38.574,61.523,-28.320
1568081227.599,51.758,34.668,37.598,75.684,-30.273
1568081227.603,62.500,38.086,38.574,36.621,-3.906
1568081227.607,62.988,35.645,37.598,12.695,36.133
1568081227.610,53.223,36.133,34.180,45.410,-3.418
1568081227.614,42.969,35.645,26.855,69.824,-60.059
1568081227.618,40.527,31.250,21.484,35.156,26.367
1568081227.622,41.016,30.762,22.461,-5.371,47.363
1568081227.626,30.762,32.227,29.297,12.695,20.020
1568081227.630,17.578,33.691,34.668,49.316,-2.441
1568081227.634,23.926,37.109,38.574,44.922,11.719
1568081227.638,37.598,38.574,36.133,6.836,34.668
1568081227.642,31.738,35.645,33.203,7.812,47.363
1568081227.646,27.832,31.250,37.109,55.176,45.410
1568081227.649,29.785,25.879,41.504,66.895,20.996
1568081227.653,34.668,24.902,39.551,20.996,-19.043
1568081227.657,45.410,29.297,36.133,7.324,20.508
1568081227.661,30.273,25.391,39.551,37.598,20.020
1568081227.665,20.996,23.438,42.969,55.176,-11.230
1568081227.669,43.945,33.203,38.086,30.273,19.043
1568081227.673,56.641,35.645,33.203,8.301,18.555
1568081227.677,44.434,32.715,36.621,39.551,15.625
1568081227.681,29.785,35.645,41.992,67.383,15.137
1568081227.685,37.598,33.691,44.922,43.457,36.133
1568081227.689,55.664,31.250,44.434,18.066,-7.812
1568081227.692,48.340,31.738,40.527,38.574,-40.039
1568081227.696,24.902,22.949,33.203,63.965,41.504
1568081227.700,29.297,21.484,28.809,52.246,15.137
1568081227.704,45.898,28.809,27.832,16.113,37.109
1568081227.708,38.086,29.297,30.762,17.090,49.316
1568081227.712,24.902,30.273,38.086,53.223,-16.113
1568081227.716,27.344,36.621,45.410,59.570,11.230
1568081227.720,38.086,39.551,45.410,20.020,37.598
1568081227.724,41.016,37.598,36.133,4.395,33.203
1568081227.728,20.996,31.738,27.344,37.109,14.160
1568081227.732,9.766,28.809,26.855,56.152,19.043
1568081227.735,23.438,26.367,31.738,27.832,10.254
1568081227.739,35.156,26.367,33.203,2.930,17.090
1568081227.743,33.691,33.691,36.133,29.297,56.641
1568081227.747,22.949,36.621,34.668,61.523,28.809
1568081227.751,26.367,34.668,32.227,41.504,-21.973
1568081227.755,41.504,34.180,32.715,5.371,35.156
1568081227.759,34.668,29.785,31.250,13.672,27.344
1568081227.763,20.508,23.926,32.227,52.734,28.320
1568081227.767,25.391,26.855,36.621,54.688,48.340
1568081227.771,37.598,29.297,37.109,16.602,84.473
1568081227.774,36.621,25.879,37.598,11.719,83.496
1568081227.778,21.484,27.832,33.691,46.387,49.805
1568081227.782,19.043,29.785,27.832,61.035,76.660
1568081227.786,37.598,29.297,28.320,26.367,44.434
1568081227.790,45.410,32.715,32.715,7.324,21.973
1568081227.794,27.832,33.203,34.180,37.598,37.109
1568081227.798,14.648,29.785,32.227,57.617,55.176
1568081227.802,22.949,29.785,30.762,25.879,58.594
1568081227.806,37.598,35.156,28.809,-0.977,35.156
1568081227.810,32.715,36.133,27.832,23.438,27.832
1568081227.814,19.531,31.250,31.738,50.781,66.895
1568081227.817,25.879,26.855,32.715,31.738,36.621
1568081227.821,40.039,24.902,27.832,-1.953,21.484
1568081227.825,39.062,26.367,31.250,11.230,11.719
1568081227.829,30.762,31.738,41.016,54.688,7.324
1568081227.833,33.691,38.574,42.480,63.965,16.602
1568081227.837,46.875,35.156,37.109,25.879,26.855
1568081227.841,45.898,32.227,34.180,11.230,47.363
1568081227.845,24.902,31.250,37.109,48.828,37.109
1568081227.849,12.695,28.809,37.109,67.383,22.461
1568081227.853,26.367,28.809,32.715,28.809,73.242
1568081227.857,41.504,30.762,33.203,14.160,66.895
1568081227.860,30.762,32.715,41.016,47.852,42.969
1568081227.864,23.926,32.715,45.410,70.801,34.180
1568081227.868,37.109,35.645,40.039,46.387,41.992
1568081227.872,53.223,33.691,37.109,15.625,33.203
1568081227.876,50.293,31.738,36.133,33.203,30.273
1568081227.880,34.180,34.180,34.668,61.523,72.754
1568081227.884,30.273,31.738,35.156,42.480,40.039
1568081227.888,44.434,33.203,35.156,3.418,-4.883
1568081227.892,45.898,38.574,39.062,4.395,5.859
1568081227.896,29.785,37.598,45.898,42.969,55.176
1568081227.899,25.391,34.180,40.039,55.664,55.664
1568081227.903,45.898,42.969,31.738,22.461,19.043
1568081227.907,52.734,43.945,32.715,10.742,-34.180
1568081227.911,29.785,34.180,34.180,44.922,-49.805
1568081227.915,21.484,33.203,35.156,69.336,-1.465
1568081227.919,34.668,33.203,40.039,41.016,37.109
1568081227.923,45.410,32.227,42.969,17.578,51.270
1568081227.927,39.551,29.297,42.969,46.387,44.922
1568081227.931,22.949,25.391,39.062,67.383,46.875
1568081227.935,23.926,23.438,36.133,40.527,0.000
1568081227.939,36.133,26.855,33.691,13.672,-4.395
1568081227.942,35.156,29.785,34.668,29.297,53.223
1568081227.946,19.531,30.273,37.109,61.035,77.637
1568081227.950,22.461,35.156,41.992,55.176,58.594
1568081227.954,41.504,38.574,41.016,16.113,65.918
1568081227.958,45.898,30.273,34.180,12.695,8.789
1568081227.962,34.668,29.297,34.180,47.852,2.441
1568081227.966,32.227,35.645,36.133,56.641,22.461
1568081227.970,41.504,37.109,27.344,15.625,5.859
1568081227.974,42.969,36.133,21.973,-0.977,34.180
1568081227.978,29.785,33.203,26.855,37.598,42.969
1568081227.982,21.484,34.180,30.273,56.641,59.082
1568081227.985,37.109,35.645,33.691,20.020,65.430
1568081227.989,43.945,33.203,33.203,-7.324,59.082
1568081227.993,37.109,34.180,30.273,26.367,79.102
1568081227.997,30.273,30.762,30.762,60.059,71.289
1568081228.001,33.203,27.832,26.855,37.109,-5.859
1568081228.005,44.434,24.902,24.414,4.883,10.254
1568081228.009,38.086,23.438,29.785,20.996,41.504
1568081228.013,23.438,28.320,33.203,60.059,40.527
1568081228.017,24.414,28.809,37.598,57.129,46.875
1568081228.021,32.715,28.809,31.250,14.160,-9.766
1568081228.024,29.785,24.902,25.391,6.348,21.973
1568081228.028,16.602,24.414,28.809,44.922,29.297
1568081228.032,8.301,27.344,31.250,50.781,29.785
1568081228.036,27.344,27.344,31.250,10.254,23.438
1568081228.040,43.457,31.738,30.762,-6.836,13.672
1568081228.044,23.438,31.250,28.809,25.879,45.898
1568081228.048,12.695,29.297,22.461,52.246,18.066
1568081228.052,34.668,37.598,19.043,21.973,-40.527
1568081228.056,51.758,42.969,24.902,-6.348,1.953
1568081228.060,39.551,39.551,26.855,14.648,35.156
1568081228.064,25.879,35.645,24.902,43.457,5.371
1568081228.067,32.715,32.227,26.855,34.180,46.387
1568081228.071,46.875,28.320,29.297,5.371,31.250
1568081228.075,44.922,29.785,29.297,17.090,11.719
1568081228.079,28.809,32.227,26.367,54.199,12.207
1568081228.083,22.949,26.855,26.855,54.199,-3.906
1568081228.087,37.109,24.414,27.832,17.578,4.395
1568081228.091,34.180,24.414,32.227,15.137,40.039
1568081228.095,14.160,28.809,37.598,53.223,48.828
1568081228.099,7.812,32.715,32.227,62.012,65.918
1568081228.103,18.555,26.855,24.414,21.973,112.305
1568081228.107,26.855,25.879,29.785,6.348,30.273
1568081228.110,9.766,27.832,35.645,38.086,-7.324
1568081228.114,0.000,24.414,31.738,61.035,29.785
1568081228.118,6.348,20.508,27.832,29.785,29.297
1568081228.122,16.602,22.461,25.391,-4.395,-2.930
1568081228.126,20.508,28.320,25.391,20.020,-12.207
1568081228.130,12.695,32.227,27.344,57.129,47.852
1568081228.134,22.461,35.645,27.832,44.922,76.172
1568081228.138,40.527,33.691,25.879,5.371,25.879
1568081228.142,37.109,27.344,21.973,-1.465,7.812
1568081228.146,20.996,29.297,18.066,33.203,50.293
1568081228.149,20.508,32.227,18.555,41.992,23.438
1568081228.153,30.273,38.086,23.438,-0.488,42.480
1568081228.157,27.832,36.133,28.320,-12.695,92.285
1568081228.161,8.789,26.855,26.367,27.344,57.129
1568081228.165,4.395,29.297,21.973,47.852,31.250
1568081228.169,22.461,36.133,21.973,15.137,41.504
1568081228.173,36.133,40.527,22.949,-3.418,35.156
1568081228.177,27.344,40.039,18.555,26.367,-5.371
1568081228.181,10.742,30.762,15.625,50.293,0.977
1568081228.185,16.113,25.879,18.555,30.762,23.438
1568081228.189,28.809,26.367,26.367,4.395,40.527
1568081228.192,13.672,26.855,32.227,16.113,88.379
1568081228.196,4.395,26.855,34.180,50.293,8.301
1568081228.200,20.020,26.855,30.273,47.852,-33.203
1568081228.204,33.203,29.297,24.902,9.766,8.301
1568081228.208,29.297,26.367,23.438,9.277,-36.621
1568081228.212,18.555,23.926,23.926,48.340,-22.461
1568081228.216,21.973,27.832,25.879,57.129,46.875
1568081228.220,36.133,31.250,27.344,17.578,56.152
1568081228.224,32.227,28.320,27.344,2.441,7.812
1568081228.228,13.672,23.926,26.367,37.598,41.504
1568081228.232,6.836,27.832,29.297,54.199,107.422
1568081228.235,14.648,29.297,31.250,20.020,68.848
1568081228.239,27.344,25.391,25.391,-0.977,-11.719
1568081228.243,21.484,21.484,25.391,27.832,13.184
1568081228.247,17.090,22.949,27.832,64.941,23.926
1568081228.251,25.879,35.156,22.461,38.574,14.648
1568081228.255,32.715,38.086,20.996,-5.859,51.270
1568081228.259,33.691,36.133,20.020,10.742,34.180
1568081228.263,31.250,38.574,20.020,47.363,17.090
1568081228.267,28.320,36.133,18.555,36.621,35.645
1568081228.271,35.645,32.227,14.648,-0.977,9.277
1568081228.274,37.109,32.715,16.602,0.977,-5.371
1568081228.278,27.832,35.156,20.996,41.992,-12.695
1568081228.282,26.367,35.156,20.996,58.594,-46.875
1568081228.286,40.527,35.645,20.996,24.414,20.020
1568081228.290,57.129,41.992,27.344,16.113,76.172
1568081228.294,46.387,46.875,26.855,52.246,14.648
1568081228.298,34.668,43.945,19.531,70.312,33.691
1568081228.302,42.969,40.039,14.160,38.086,69.336
1568081228.306,49.805,39.551,13.672,13.672,41.016
1568081228.310,40.039,37.109,17.578,31.250,68.848
1568081228.314,25.391,31.738,22.461,56.152,27.832
1568081228.317,30.762,36.133,27.344,41.016,-11.719
1568081228.321,47.363,38.574,30.762,2.441,38.086
1568081228.325,42.969,37.598,33.203,7.324,4.395
1568081228.329,27.344,37.109,31.250,44.922,-26.367
1568081228.333,26.367,35.645,30.273,47.363,27.832
1568081228.337,45.898,41.504,29.297,10.254,21.484
1568081228.341,48.340,41.504,27.344,3.418,40.527
1568081228.345,22.461,35.645,24.414,33.203,74.707
1568081228.349,6.348,36.133,24.414,41.016,27.832
1568081228.353,14.648,33.203,24.902,3.906,18.066
1568081228.357,26.855,31.738,30.762,-15.137,54.688
1568081228.360,20.996,37.109,39.551,19.043,50.781
1568081228.364,9.277,32.715,40.039,49.805,79.590
1568081228.368,20.508,28.809,35.645,22.461,11.230
1568081228.372,31.250,28.320,26.855,-10.742,9.766
1568081228.376,16.602,26.367,24.414,12.207,59.082
1568081228.380,17.090,28.809,28.320,50.293,45.410
1568081228.384,32.715,34.180,29.297,41.992,23.438
1568081228.388,41.504,36.621,30.273,4.883,4.883
1568081228.392,35.645,37.109,31.250,7.812,59.082
1568081228.396,22.461,34.180,29.785,46.387,60.547
1568081228.399,21.484,34.668,30.273,53.711,45.898
1568081228.403,30.273,32.227,32.227,13.672,71.289
1568081228.407,27.832,28.809,26.855,3.906,69.824
1568081228.411,9.766,27.832,22.461,37.598,50.781
1568081228.415,6.836,27.344,26.855,48.828,-4.883
1568081228.419,25.391,29.297,29.297,13.184,35.156
1568081228.423,35.156,32.227,26.855,-3.418,-18.555
1568081228.427,19.531,29.785,30.273,32.227,-1.465
1568081228.431,2.441,23.438,31.738,57.129,85.449
1568081228.435,11.230,27.344,28.809,30.762,17.090
1568081228.439,25.879,30.762,24.902,0.977,16.602
1568081228.442,21.484,29.785,25.879,22.949,10.254
1568081228.446,14.648,32.715,32.227,61.035,9.766
1568081228.450,18.066,35.156,33.691,53.711,4.883
1568081228.454,36.133,36.621,27.832,12.207,18.066
1568081228.458,39.062,38.574,31.738,10.254,8.789
1568081228.462,22.949,39.062,35.645,51.270,-37.109
1568081228.466,19.531,30.762,29.785,60.059,-26.367
1568081228.470,30.273,25.391,23.438,19.531,4.395
1568081228.474,36.621,27.832,24.414,9.277,20.996
1568081228.478,28.320,31.738,33.203,51.270,27.832
1568081228.482,19.043,34.180,36.133,71.777,72.266
1568081228.485,23.438,32.227,33.691,35.156,89.355
1568081228.489,33.203,34.668,38.086,11.230,64.941
1568081228.493,20.020,37.598,40.527,35.645,80.566
1568081228.497,4.883,34.180,32.227,62.500,73.730
1568081228.501,11.230,31.250,24.902,43.945,19.043
1568081228.505,20.508,26.855,22.949,6.348,13.184
1568081228.509,22.949,31.738,26.855,23.438,21.973
1568081228.513,13.184,38.574,32.227,61.035,35.156
1568081228.517,6.348,35.645,32.227,52.734,35.156
1568081228.521,20.020,33.691,29.785,14.160,-40.039
1568081228.524,20.996,30.273,26.367,10.254,8.301
1568081228.528,2.930,30.273,28.809,47.363,86.914
1568081228.532,-4.395,31.738,31.738,56.641,11.230
1568081228.536,6.348,34.180,27.344,15.137,15.625
1568081228.540,19.531,34.180,24.414,0.488,102.539
1568081228.544,10.742,28.809,25.879,38.086,73.242
1568081228.548,2.930,29.297,27.832,59.570,39.062
1568081228.552,15.137,30.762,30.273,30.762,17.578
1568081228.556,22.461,29.297,29.297,3.418,-33.203
1568081228.560,12.207,27.344,31.738,31.250,-27.832
1568081228.564,0.977,26.855,36.133,60.547,-21.484
1568081228.567,9.766,29.785,33.203,40.039,18.555
1568081228.571,24.902,28.809,27.344,0.488,40.039
1568081228.575,23.438,27.832,29.297,10.742,12.207
1568081228.579,18.066,32.715,35.156,57.129,-21.973
1568081228.583,15.137,33.203,33.203,49.805,-28.809
1568081228.587,26.367,32.227,32.715,11.230,-46.875
1568081228.591,29.785,31.250,36.621,9.277,-31.738
1568081228.595,17.578,31.250,33.691,44.434,35.156
1568081228.599,14.648,33.691,25.879,58.594,75.195
1568081228.603,29.297,30.762,21.973,17.578,41.504
1568081228.607,39.551,26.367,26.367,-1.953,36.133
1568081228.610,24.902,27.344,31.738,33.203,52.734
1568081228.614,15.137,32.227,38.086,62.500,20.508
1568081228.618,29.297,34.668,37.109,33.691,11.230
1568081228.622,41.504,28.809,31.250,4.395,-5.371
1568081228.626,25.391,26.367,32.715,27.344,63.965
1568081228.630,9.277,29.297,31.250,58.105,89.355
1568081228.634,16.602,30.273,26.855,46.875,33.691
1568081228.638,29.297,30.273,26.367,10.254,55.664
1568081228.642,28.320,28.320,25.879,12.695,12.207
1568081228.646,11.719,29.297,24.902,46.875,3.418
1568081228.649,13.672,32.715,29.785,54.199,62.988
1568081228.653,30.762,34.668,31.250,16.602,32.715
1568081228.657,30.762,34.180,25.879,7.324,50.781
1568081228.661,15.137,29.297,26.367,41.016,66.895
1568081228.665,11.719,26.367,27.832,51.270,-9.766
1568081228.669,26.367,26.855,26.855,16.113,-13.672
1568081228.673,29.785,23.438,28.809,-2.930,41.992
1568081228.677,19.043,20.996,28.320,28.320,42.480
1568081228.681,17.578,24.414,26.855,52.734,16.602
1568081228.685,25.391,26.367,26.367,28.809,17.090
1568081228.689,36.621,23.926,26.855,5.371,26.855
1568081228.692,34.180,28.320,23.926,24.902,-5.371
1568081228.696,20.508,32.715,21.484,54.688,-17.578
1568081228.700,18.555,27.344,28.809,43.945,13.184
1568081228.704,24.902,21.973,31.738,7.324,15.137
1568081228.708,24.414,25.879,32.715,10.254,-10.742
1568081228.712,19.043,32.227,41.016,54.199,-26.367
1568081228.716,13.672,29.297,41.016,62.500,-1.465
1568081228.720,22.461,27.344,30.273,13.184,2.441
1568081228.724,27.832,28.809,25.391,-1.953,22.949
1568081228.728,9.277,25.879,26.367,34.180,24.902
1568081228.732,-1.953,24.414,26.367,51.758,55.176
1568081228.735,8.789,26.367,25.879,21.484,99.609
1568081228.739,24.902,23.438,25.391,0.000,108.887
1568081228.743,24.414,21.484,29.297,29.785,86.914
1568081228.747,19.531,27.832,32.227,64.941,-5.859
1568081228.751,32.227,30.273,30.273,44.434,-18.555
1568081228.755,40.527,29.785,24.414,-0.488,29.785
1568081228.759,35.156,27.832,25.391,13.672,1.465
1568081228.763,15.137,26.367,32.227,42.969,-5.371
1568081228.767,13.672,23.926,28.320,41.504,32.227
1568081228.771,32.227,22.461,26.855,12.695,52.734
1568081228.774,28.809,23.438,41.016,4.883,73.242
1568081228.778,17.578,22.949,49.805,51.758,49.805
1568081228.782,10.254,20.996,48.340,62.500,11.719
1568081228.786,19.531,12.207,45.410,19.043,-41.504
1568081228.790,33.203,10.742,41.016,8.789,-23.926
1568081228.794,18.066,17.578,40.039,43.457,63.477
1568081228.798,-0.977,18.066,45.898,63.965,15.137
1568081228.802,5.371,20.996,43.457,32.227,11.230
1568081228.806,16.113,24.414,34.668,-1.465,35.156
1568081228.810,8.301,26.855,38.574,23.438,-0.488
1568081228.814,-2.930,30.273,35.645,57.617,18.555
1568081228.817,-1.953,28.320,25.879,38.574,3.418
1568081228.821,9.277,28.320,24.902,3.906,-7.812
1568081228.825,6.348,28.320,27.832,10.742,38.574
1568081228.829,-14.648,28.809,30.273,43.457,63.965
1568081228.833,-17.090,30.273,30.273,43.457,56.641
1568081228.837,3.906,29.297,31.250,6.348,11.719
1568081228.841,14.648,29.785,38.086,7.324,-6.348
1568081228.845,8.789,27.344,40.039,46.875,-15.137
1568081228.849,5.859,24.414,36.133,56.152,-0.977
1568081228.853,18.066,24.414,25.391,15.625,19.531
1568081228.857,34.180,27.832,22.949,-4.883,6.836
1568081228.860,23.926,28.809,31.738,28.320,62.012
1568081228.864,11.230,27.832,33.691,57.129,47.363
1568081228.868,22.461,24.902,34.668,30.273,-1.465
1568081228.872,35.156,21.973,38.086,5.371,35.645
1568081228.876,27.832,20.508,39.062,30.762,41.504
1568081228.880,15.625,18.555,35.156,66.895,53.711
1568081228.884,20.020,23.438,28.320,50.781,35.156
1568081228.888,32.715,28.320,23.438,10.742,28.320
1568081228.892,30.273,27.344,25.879,16.113,35.156
1568081228.896,16.602,25.879,34.180,47.852,26.367
1568081228.899,16.113,31.250,40.039,51.270,90.332
1568081228.903,24.902,32.715,35.645,9.766,88.379
1568081228.907,24.414,27.344,30.762,-1.953,43.457
1568081228.911,7.812,21.973,30.762,32.227,-16.602
1568081228.915,2.441,19.043,28.809,45.898,-28.320
1568081228.919,14.648,20.508,25.879,13.672,22.461
1568081228.923,18.066,20.020,22.949,-11.230,5.859
1568081228.927,11.719,26.855,26.367,20.996,-14.160
1568081228.931,7.324,31.250,34.180,53.223,34.668
1568081228.935,16.602,25.879,36.621,26.367,26.367
1568081228.939,37.109,25.391,32.715,-0.488,11.719
1568081228.942,33.691,28.809,38.086,23.926,21.484
1568081228.946,14.648,27.344,41.992,60.059,9.277
1568081228.950,20.020,25.879,39.062,51.758,72.266
1568081228.954,32.227,25.879,33.691,11.719,60.059
1568081228.958,25.879,28.320,28.320,13.184,49.316
1568081228.962,7.324,28.320,27.344,46.387,97.168
1568081228.966,2.441,23.926,30.273,48.828,84.473
1568081228.970,16.113,22.949,30.273,7.812,45.410
1568081228.974,22.949,26.367,24.414,-4.883,62.500
1568081228.978,2.930,25.879,22.949,33.203,35.645
1568081228.982,-3.906,31.738,24.902,54.199,74.219
1568081228.985,11.719,32.227,24.902,20.996,39.062
1568081228.989,15.625,26.855,20.996,-6.836,-17.090
1568081228.993,8.789,27.832,25.391,23.926,25.391
1568081228.997,-3.906,23.438,33.203,52.246,3.418
1568081229.001,3.418,21.973,35.645,30.762,-11.719
1568081229.005,24.902,26.855,35.156,0.977,-17.090
1568081229.009,25.391,30.273,32.715,18.066,-5.371
1568081229.013,13.184,30.762,26.855,58.105,10.742
1568081229.017,15.137,25.391,23.438,49.805,36.133
1568081229.021,32.227,22.949,26.367,9.766,58.594
1568081229.024,37.109,29.785,25.391,9.766,58.594
1568081229.028,22.461,31.738,29.297,49.805,9.277
1568081229.032,16.113,32.715,33.691,53.223,-28.809
1568081229.036,24.414,34.180,30.762,9.766,1.465
1568081229.040,31.250,33.203,26.855,-0.977,-3.906
1568081229.044,19.531,31.250,28.809,34.180,-36.621
1568081229.048,10.742,28.320,28.320,55.176,55.176
1568081229.052,20.508,27.344,23.926,26.855,85.449
1568081229.056,35.645,32.715,21.973,2.930,27.344
1568081229.060,30.273,37.109,22.461,26.367,29.297
1568081229.064,11.719,36.621,29.785,52.734,25.391
1568081229.067,12.695,34.180,40.039,38.086,53.711
1568081229.071,20.996,27.344,37.598,4.395,37.598
1568081229.075,14.648,22.949,32.715,8.789,-20.996
1568081229.079,-4.883,22.949,34.668,41.016,-20.508
1568081229.083,-10.742,28.320,31.738,37.109,16.113
1568081229.087,3.418,31.250,21.973,-1.465,43.945
1568081229.091,8.301,28.320,21.484,-7.812,42.480
1568081229.095,0.488,30.273,31.250,31.250,57.617
1568081229.099,-3.906,25.879,29.785,44.434,90.332
1568081229.103,6.836,21.484,23.438,7.324,96.680
1568081229.107,19.531,23.438,25.391,-3.418,20.020
1568081229.110,10.742,23.926,25.879,27.832,35.645
1568081229.114,2.441,27.344,30.762,48.828,50.781
1568081229.118,14.648,31.250,34.180,24.902,24.414
1568081229.122,32.227,38.086,30.273,0.000,45.410
1568081229.126,31.738,41.016,25.391,18.066,71.777
1568081229.130,18.555,36.621,27.832,50.781,79.590
1568081229.134,16.113,37.109,28.809,39.551,67.871
1568081229.138,27.344,38.574,19.531,0.488,38.086
1568081229.142,20.020,36.621,18.066,4.883,1.953
1568081229.146,-3.418,35.156,26.855,41.992,39.062
1568081229.149,-10.742,35.645,26.855,46.387,49.316
1568081229.153,2.930,34.668,26.855,10.742,31.738
1568081229.157,8.301,35.645,34.180,5.859,17.578
1568081229.161,-3.906,37.109,41.504,48.828,4.883
1568081229.165,-14.648,32.715,37.109,60.059,37.109
1568081229.169,-6.836,29.297,30.762,18.555,38.574
1568081229.173,3.418,27.344,32.715,-3.906,84.473
1568081229.177,-10.742,25.879,37.109,26.367,115.234
1568081229.181,-29.785,24.902,32.227,51.758,28.809
1568081229.185,-33.691,23.926,22.949,22.461,38.574
1568081229.189,-27.832,24.902,19.043,-11.230,71.777
1568081229.192,-28.320,30.273,26.367,10.742,10.254
1568081229.196,-38.574,36.621,40.039,53.711,66.406
1568081229.200,-38.574,36.621,39.551,41.992,75.195
1568081229.204,-27.344,32.227,29.297,5.371,-0.977
1568081229.208,-30.273,31.738,28.809,13.672,2.441
1568081229.212,-44.922,31.250,36.621,48.340,39.062
1568081229.216,-48.340,30.762,36.133,48.340,79.102
1568081229.220,-38.086,33.691,29.785,7.324,74.707
1568081229.224,-25.391,34.180,30.762,0.000,30.762
1568081229.228,-35.156,36.133,37.109,38.574,61.035
1568081229.232,-44.922,36.133,35.156,54.199,59.082
1568081229.235,-34.180,31.250,23.926,16.602,38.086
1568081229.239,-23.926,25.879,20.996,-6.348,51.270
1568081229.243,-27.832,25.879,27.832,29.297,45.410
1568081229.247,-34.180,27.344,29.785,58.105,56.152
1568081229.251,-27.344,27.832,32.715,33.203,41.504
1568081229.255,-9.277,30.273,36.133,-3.418,42.480
1568081229.259,-7.324,33.203,35.645,11.230,41.992
1568081229.263,-16.602,36.133,36.133,55.664,38.086
1568081229.267,-15.625,35.645,30.762,49.805,6.836
1568081229.271,0.000,29.785,26.367,7.812,-8.789
1568081229.274,7.812,27.344,26.367,11.230,5.371
1568081229.278,-4.883,28.809,27.344,50.781,39.062
1568081229.282,-1.465,27.344,30.762,60.547,35.645
1568081229.286,17.578,23.926,29.297,26.367,-23.438
1568081229.290,24.902,20.508,29.785,9.766,-20.996
1568081229.294,13.672,21.973,35.156,41.504,47.363
1568081229.298,10.254,29.297,37.598,62.012,72.266
1568081229.302,29.785,35.645,35.156,30.762,59.570
1568081229.306,41.016,36.621,32.715,8.301,7.812
1568081229.310,28.809,35.156,30.762,36.621,0.977
1568081229.314,15.625,35.156,27.344,66.895,39.551
1568081229.317,20.996,33.203,29.297,48.340,71.289
1568081229.321,34.668,31.250,32.715,13.672,81.543
1568081229.325,24.414,29.297,31.738,23.926,29.785
1568081229.329,13.672,31.738,29.785,63.477,26.367
1568081229.333,25.391,32.227,31.738,67.871,74.707
1568081229.337,22.461,28.809,32.227,14.648,48.828
1568081229.341,14.648,31.250,29.297,-0.488,32.715
1568081229.345,18.066,30.273,32.227,53.711,6.836
1568081229.349,7.324,26.855,35.156,60.547,-47.852
1568081229.353,17.578,22.949,36.133,22.461,-2.930
1568081229.357,30.273,19.043,43.457,13.184,58.105
1568081229.360,3.418,22.461,40.527,30.762,8.789
1568081229.364,1.465,22.461,33.203,56.641,-3.418
1568081229.368,13.672,22.461,34.180,32.227,-2.441
1568081229.372,22.461,28.809,37.109,-1.465,-56.152
1568081229.376,20.020,29.297,40.039,35.156,-11.230
1568081229.380,1.953,25.391,40.527,70.801,21.973
1568081229.384,10.742,23.438,33.691,51.270,33.691
1568081229.388,33.203,21.484,28.320,14.160,10.254
1568081229.392,30.762,21.484,30.762,24.414,-11.230
1568081229.396,19.043,26.855,35.645,64.941,10.742
1568081229.399,26.855,24.414,36.133,67.871,-0.977
1568081229.403,45.410,21.484,31.738,27.832,3.418
1568081229.407,49.805,24.414,33.691,21.484,-3.418
1568081229.411,35.156,29.297,40.039,55.664,4.395
1568081229.415,29.297,29.297,37.598,66.406,13.184
1568081229.419,42.480,28.809,32.227,32.715,4.395
1568081229.423,42.480,24.414,31.738,15.137,29.297
1568081229.427,27.832,20.020,39.062,49.316,15.137
1568081229.431,16.113,20.508,43.457,72.754,-0.488
1568081229.435,22.949,21.973,41.504,49.316,3.418
1568081229.439,38.086,24.414,40.039,21.484,7.324
1568081229.442,29.297,25.391,39.062,34.180,27.832
1568081229.446,11.719,29.297,35.645,64.453,34.668
1568081229.450,6.836,31.250,33.203,48.828,23.438
1568081229.454,17.090,33.691,30.273,10.254,12.207
1568081229.458,19.531,32.715,30.273,18.555,-10.742
1568081229.462,-0.977,27.344,34.180,57.617,36.621
1568081229.466,-0.977,26.855,33.203,61.523,48.828
1568081229.470,21.973,25.391,30.762,22.461,-1.465
1568081229.474,30.273,26.367,32.715,16.113,56.152
1568081229.478,17.090,30.762,37.598,55.664,41.016
1568081229.482,6.836,37.109,37.598,73.242,-51.758
1568081229.485,14.648,37.109,34.668,36.621,-18.555
1568081229.489,14.160,26.367,29.785,12.207,43.945
1568081229.493,0.488,25.879,33.691,42.480,39.551
1568081229.497,-11.230,27.344,41.016,75.684,5.859
1568081229.501,-3.906,28.320,42.969,56.152,41.016
1568081229.505,4.883,24.902,38.574,18.066,41.992
1568081229.509,-3.906,26.855,36.133,34.180,23.438
1568081229.513,-9.277,42.480,42.969,75.684,49.805
1568081229.517,-19.531,41.992,49.805,62.500,9.766
1568081229.521,-17.578,31.738,47.852,19.043,14.648
1568081229.524,-16.602,22.461,39.551,9.277,16.113
1568081229.528,-30.273,24.902,43.457,41.504,-0.977
1568081229.532,-31.250,31.738,43.457,48.828,-15.137
1568081229.536,-23.926,33.691,46.875,7.324,-18.555
1568081229.540,-25.391,31.250,48.340,-11.230,49.316
1568081229.544,-63.477,19.531,33.691,-3.906,64.941
1568081229.548,-69.824,28.320,48.828,12.207,-3.418
1568081229.552,-61.035,38.086,51.270,-28.320,18.555
1568081229.556,-69.824,36.621,37.109,-75.684,52.734
1568081229.560,-87.891,40.039,40.039,-57.617,65.430
1568081229.564,-127.930,32.227,36.133,-52.246,46.875
1568081229.567,-127.930,39.062,43.945,-81.055,28.320
1568081229.571,-124.512,41.992,48.828,-133.789,55.664
1568081229.575,-156.738,32.715,53.711,-154.785,57.617
1568081229.579,-182.617,31.250,68.848,-128.418,58.594
1568081229.583,-195.312,25.391,72.266,-137.207,38.086
1568081229.587,-195.312,20.020,69.336,-186.035,18.555
1568081229.591,-190.430,21.973,64.941,-189.453,24.902
1568081229.595,-198.730,23.926,72.754,-149.414,23.926
1568081229.599,-214.355,15.137,76.660,-148.926,68.359
1568081229.603,-203.125,11.230,79.590,-187.988,50.781
1568081229.607,-194.336,16.602,84.961,-200.684,42.480
1568081229.610,-200.684,15.625,79.102,-162.598,78.613
1568081229.614,-206.543,16.602,76.660,-143.555,61.523
1568081229.618,-199.219,10.742,70.801,-173.340,82.520
1568081229.622,-180.176,13.184,64.941,-187.012,62.012
1568081229.626,-174.805,21.484,70.801,-152.344,-20.996
