timestamps,TP9,AF7,AF8,TP10,Right AUX
1568081171.411,-52.246,33.691,29.785,47.852,21.973
1568081171.415,-61.035,30.762,31.738,49.316,56.152
1568081171.419,-40.527,29.297,22.949,8.789,9.277
1568081171.423,-35.645,28.320,18.066,-1.953,-23.926
1568081171.427,-56.152,27.344,22.461,35.645,86.914
1568081171.431,-62.988,23.438,22.461,55.176,39.551
1568081171.435,-41.504,22.949,20.508,20.996,-32.227
1568081171.439,-19.043,25.391,31.738,6.348,72.266
1568081171.442,-31.250,29.785,34.668,39.551,92.285
1568081171.446,-50.293,32.227,27.344,65.918,32.227
1568081171.450,-37.598,36.133,21.484,36.621,26.855
1568081171.454,-18.555,29.785,25.391,-0.977,-14.648
1568081171.458,-31.738,19.043,28.809,15.625,25.391
1568081171.462,-44.434,22.949,28.809,51.758,46.875
1568081171.466,-29.297,28.809,28.809,42.480,18.066
1568081171.470,-6.348,29.785,27.832,0.977,68.359
1568081171.474,-2.441,26.855,29.785,1.953,55.176
1568081171.478,-23.926,22.949,26.367,45.410,67.871
1568081171.482,-30.762,25.391,21.484,58.594,70.801
1568081171.485,-7.324,30.762,25.391,18.066,28.320
1568081171.489,14.160,32.227,26.367,3.418,0.000
1568081171.493,0.488,27.832,31.738,44.922,20.996
1568081171.497,-17.090,21.973,32.715,66.406,-4.883
1568081171.501,-12.207,21.973,19.043,24.902,22.949
1568081171.505,-13.672,25.879,11.719,-3.418,28.320
1568081171.509,-49.316,22.949,17.578,27.344,7.324
1568081171.513,-85.449,26.367,27.832,62.012,66.406
1568081171.517,-88.379,29.785,31.738,39.551,34.668
1568081171.521,-76.660,26.367,30.762,-1.465,6.348
1568081171.525,-85.938,28.320,31.738,14.160,-2.441
1568081171.528,-122.559,30.273,34.180,52.246,-20.020
1568081171.532,-134.766,29.297,33.691,49.805,18.555
1568081171.536,-107.910,24.902,21.973,8.301,23.438
1568081171.540,-109.375,19.043,18.555,3.418,52.246
1568081171.544,-139.160,23.926,25.879,44.922,104.004
1568081171.548,-143.555,31.738,23.926,57.617,62.988
1568081171.552,-136.230,32.227,20.508,14.648,27.832
1568081171.556,-133.789,28.320,24.902,-4.883,26.367
1568081171.560,-167.969,29.297,31.250,33.691,58.594
1568081171.564,-225.586,31.738,34.180,61.035,70.801
1568081171.567,-265.625,26.367,34.180,28.809,44.922
1568081171.571,-289.551,25.879,31.250,4.883,58.105
1568081171.575,-326.172,26.367,31.738,32.715,22.949
1568081171.579,-364.258,25.879,36.133,63.477,-8.789
1568081171.583,-362.305,28.809,30.273,48.828,-2.930
1568081171.587,-360.352,23.926,17.578,12.695,7.324
1568081171.591,-387.207,21.484,18.555,23.438,52.734
1568081171.595,-410.645,26.855,24.414,59.570,0.488
1568081171.599,-414.551,30.273,26.855,58.594,-19.043
1568081171.603,-408.691,30.273,26.855,17.578,47.363
1568081171.607,-424.805,30.762,26.855,19.043,7.812
1568081171.610,-465.820,31.250,26.855,62.012,-15.625
1568081171.614,-488.281,28.809,26.367,67.871,9.277
1568081171.618,-477.051,29.297,29.785,24.414,1.465
1568081171.622,-479.980,27.344,29.297,1.953,7.812
1568081171.626,-532.227,26.367,26.855,36.621,-10.742
1568081171.630,-581.543,29.297,32.227,61.035,-48.340
1568081171.634,-591.309,25.879,33.691,29.785,-24.902
1568081171.638,-600.098,26.367,32.715,4.883,39.062
1568081171.642,-637.207,29.785,31.738,30.273,41.992
1568081171.646,-679.688,33.691,24.902,62.012,30.762
1568081171.650,-693.359,32.715,18.555,45.410,54.688
1568081171.653,-679.688,27.832,19.043,11.719,88.379
1568081171.657,-695.801,28.809,26.855,23.926,25.391
1568081171.661,-748.535,27.832,35.156,59.082,24.902
1568081171.665,-778.809,25.391,36.133,62.500,11.719
1568081171.669,-768.066,22.461,28.809,20.020,-37.109
1568081171.673,-744.629,22.949,30.273,10.742,-0.488
1568081171.677,-739.746,26.855,35.156,54.199,1.465
1568081171.681,-718.750,27.832,31.250,70.312,43.457
1568081171.685,-665.527,26.367,25.391,33.203,56.152
1568081171.689,-626.953,27.832,25.879,9.277,30.762
1568081171.692,-612.793,26.855,30.273,43.945,87.402
1568081171.696,-599.609,25.391,31.738,69.336,89.355
1568081171.700,-574.219,26.855,28.320,31.250,36.621
1568081171.704,-558.105,23.926,27.832,-3.906,24.414
1568081171.708,-569.824,21.484,28.320,16.602,51.758
1568081171.712,-583.984,25.879,25.879,44.434,44.434
1568081171.716,-578.125,27.832,29.297,32.227,31.250
1568081171.720,-547.852,26.367,25.391,-7.324,20.020
1568081171.724,-537.598,29.297,17.578,-1.953,11.719
1568081171.728,-571.777,28.320,23.438,42.969,46.875
1568081171.732,-570.801,22.949,24.902,52.246,15.137
1568081171.735,-534.180,21.973,20.508,13.184,-6.348
1568081171.739,-558.105,27.344,22.461,3.418,16.113
1568081171.743,-639.160,26.367,23.926,36.621,-6.836
1568081171.747,-691.406,20.020,29.785,53.711,-10.742
1568081171.751,-692.871,21.973,29.297,21.973,44.922
1568081171.755,-696.289,20.020,20.996,-4.395,46.875
1568081171.759,-718.262,19.043,25.391,28.320,2.441
1568081171.763,-734.863,20.020,28.809,62.012,5.859
1568081171.767,-739.258,13.184,25.879,37.109,-0.977
1568081171.771,-746.094,13.672,28.809,7.324,-68.359
1568081171.775,-786.133,23.438,27.832,26.367,-18.555
1568081171.778,-831.055,26.367,26.855,61.523,83.984
1568081171.782,-842.285,22.949,25.879,55.176,66.895
1568081171.786,-832.520,23.438,22.949,15.137,17.578
1568081171.790,-850.586,22.461,30.273,6.836,5.371
1568081171.794,-891.113,23.438,29.785,37.109,24.414
1568081171.798,-901.855,25.879,27.344,48.828,26.367
1568081171.802,-895.020,21.973,27.832,8.789,17.090
1568081171.806,-883.789,19.043,22.461,-5.371,-5.859
1568081171.810,-888.672,22.949,21.484,35.645,31.250
1568081171.814,-893.066,28.809,23.438,61.035,62.500
1568081171.817,-860.352,20.508,23.438,27.344,47.852
1568081171.821,-832.031,13.672,20.020,-2.441,76.172
1568081171.825,-847.656,20.996,23.438,28.320,21.484
1568081171.829,-883.301,20.996,30.273,63.477,-19.531
1568081171.833,-896.484,16.113,25.879,38.086,53.711
1568081171.837,-894.531,18.555,22.949,-7.324,69.336
1568081171.841,-909.180,26.367,31.250,9.766,66.895
1568081171.845,-911.621,28.809,30.273,51.270,42.969
1568081171.849,-886.719,26.855,19.043,48.340,2.441
1568081171.853,-856.934,18.555,19.531,4.883,-11.719
1568081171.857,-839.355,16.113,26.367,-0.977,2.930
1568081171.860,-842.285,18.555,30.762,45.898,14.160
1568081171.864,-828.125,15.625,30.762,58.105,-7.324
1568081171.868,-765.625,16.602,29.785,18.555,25.879
1568081171.872,-713.379,20.508,29.785,3.906,45.410
1568081171.876,-703.125,21.973,25.879,38.574,46.387
1568081171.880,-692.871,25.879,23.926,62.012,41.504
1568081171.884,-651.367,27.344,29.785,29.785,44.434
1568081171.888,-603.027,23.438,30.273,-2.441,28.809
1568081171.892,-591.309,25.391,26.855,18.066,-2.930
1568081171.896,-589.844,29.297,31.250,52.246,57.617
1568081171.900,-563.965,27.344,36.621,40.527,93.262
1568081171.903,-529.785,26.855,34.180,0.000,29.297
1568081171.907,-518.066,25.391,29.297,5.371,0.000
1568081171.911,-515.625,18.555,34.180,48.340,18.555
1568081171.915,-487.305,24.414,36.621,55.664,23.926
1568081171.919,-446.289,31.738,31.250,20.508,4.883
1568081171.923,-424.316,31.250,29.785,12.207,55.664
1568081171.927,-429.199,31.738,27.832,47.363,64.453
1568081171.931,-433.105,28.809,24.414,62.500,54.688
1568081171.935,-410.645,27.344,24.414,23.926,46.387
1568081171.939,-393.066,31.738,32.227,3.906,34.180
1568081171.942,-409.668,34.180,43.945,40.527,38.086
1568081171.946,-433.105,29.785,42.969,61.523,-6.836
1568081171.950,-426.758,28.320,34.668,28.809,17.090
1568081171.954,-405.273,29.785,32.227,0.000,13.672
1568081171.958,-415.039,29.297,33.691,23.438,29.297
1568081171.962,-439.941,28.320,32.227,60.059,74.707
1568081171.966,-436.523,25.879,29.297,48.340,45.410
1568081171.970,-420.410,24.902,29.297,5.371,37.109
1568081171.974,-421.387,28.809,30.762,11.230,32.227
1568081171.978,-443.359,30.762,32.227,50.293,29.297
1568081171.982,-451.172,29.785,31.250,48.340,-1.465
1568081171.985,-431.641,24.414,29.297,10.254,41.504
1568081171.989,-419.922,19.043,31.738,2.441,129.395
1568081171.993,-437.012,21.973,33.691,39.062,87.402
1568081171.997,-452.637,27.344,31.738,61.035,1.465
1568081172.001,-439.453,30.273,30.273,26.855,-19.531
1568081172.005,-430.176,29.785,34.180,2.930,-5.371
1568081172.009,-444.336,33.203,39.551,38.086,-62.500
1568081172.013,-461.914,35.645,32.227,64.941,-40.527
1568081172.017,-452.148,31.738,23.438,39.062,27.832
1568081172.021,-430.176,30.273,22.949,8.301,9.277
1568081172.025,-429.688,30.762,23.926,30.762,41.992
1568081172.028,-440.918,31.250,33.203,68.359,28.320
1568081172.032,-433.594,30.273,38.574,59.570,15.137
1568081172.036,-405.273,28.320,29.785,17.090,-14.160
1568081172.040,-399.414,28.809,25.879,10.254,-44.922
1568081172.044,-413.574,29.785,27.344,44.922,41.992
1568081172.048,-413.086,29.297,30.273,49.316,99.121
1568081172.052,-389.648,27.344,26.855,3.418,43.945
1568081172.056,-370.117,27.344,25.879,-7.324,34.180
1568081172.060,-376.953,31.250,33.691,40.039,29.297
1568081172.064,-375.977,29.785,34.668,64.941,20.020
1568081172.067,-349.121,29.785,29.785,28.320,32.715
1568081172.071,-329.102,32.715,26.855,0.977,32.227
1568081172.075,-334.961,30.762,31.250,30.762,-26.855
1568081172.079,-348.145,26.367,31.738,62.988,-30.762
1568081172.083,-341.309,27.344,31.250,41.016,1.953
1568081172.087,-318.848,27.832,32.715,7.812,38.086
1568081172.091,-311.035,25.391,32.227,25.391,65.430
1568081172.095,-319.824,26.855,35.156,66.406,100.098
1568081172.099,-311.035,29.297,35.156,59.082,66.895
1568081172.103,-278.320,28.320,33.203,15.625,1.953
1568081172.107,-267.578,24.902,26.855,12.207,28.809
1568081172.110,-277.832,26.367,23.438,49.805,28.320
1568081172.114,-271.973,33.203,24.902,62.500,39.062
1568081172.118,-241.699,32.715,26.855,28.320,62.012
1568081172.122,-231.934,34.180,36.133,4.883,52.246
1568081172.126,-254.883,38.574,31.250,27.344,23.926
1568081172.130,-260.254,32.715,23.438,49.316,24.902
1568081172.134,-252.930,31.250,22.949,14.160,18.066
1568081172.138,-236.816,34.668,18.066,-18.555,37.598
1568081172.142,-235.840,32.227,19.531,11.230,28.320
1568081172.146,-249.023,33.691,22.949,41.992,36.621
1568081172.150,-235.352,33.203,31.250,27.344,51.270
1568081172.153,-202.637,32.715,32.715,-1.953,-4.883
1568081172.157,-191.406,30.762,23.926,12.207,-17.090
1568081172.161,-204.102,30.273,19.531,53.711,5.371
1568081172.165,-195.801,35.645,20.996,59.570,31.738
1568081172.169,-165.527,35.645,20.508,22.461,67.383
1568081172.173,-155.273,34.668,20.996,15.137,34.668
1568081172.177,-168.945,38.086,29.785,59.082,41.992
1568081172.181,-168.945,41.016,38.086,74.219,68.359
1568081172.185,-145.508,39.551,34.180,30.762,28.809
1568081172.189,-128.418,33.691,22.461,2.930,36.133
1568081172.192,-143.555,26.855,20.508,32.715,19.531
1568081172.196,-151.855,26.367,25.391,63.965,-32.227
1568081172.200,-129.395,29.297,22.461,38.086,-21.973
1568081172.204,-106.934,30.762,20.996,5.859,-16.602
1568081172.208,-114.258,36.133,27.344,28.320,16.113
1568081172.212,-132.324,34.668,28.320,62.012,16.113
1568081172.216,-128.418,27.344,20.996,44.434,14.648
1568081172.220,-110.352,25.879,18.066,0.977,-13.184
1568081172.224,-104.004,30.273,24.902,9.766,-30.273
1568081172.228,-112.305,33.691,27.832,50.781,-11.230
1568081172.232,-100.586,32.715,29.297,54.199,13.184
1568081172.235,-67.871,35.156,30.762,13.672,1.465
1568081172.239,-55.664,35.645,28.320,0.000,-12.695
1568081172.243,-70.801,32.227,26.367,39.062,-8.301
1568081172.247,-73.730,36.133,24.902,58.105,14.160
1568081172.251,-53.223,30.762,20.996,22.949,61.523
1568081172.255,-36.133,23.438,16.113,-0.977,52.734
1568081172.259,-48.340,22.949,20.508,28.809,8.789
1568081172.263,-69.336,24.414,30.273,60.059,-6.836
1568081172.267,-55.664,26.367,30.273,34.180,-14.648
1568081172.271,-31.738,24.414,27.832,1.953,26.367
1568081172.275,-37.109,27.832,29.785,25.879,41.992
1568081172.278,-58.594,30.273,29.785,62.988,40.527
1568081172.282,-62.012,30.273,32.227,47.363,45.410
1568081172.286,-39.062,32.715,33.691,8.301,7.812
1568081172.290,-40.527,29.297,32.715,10.742,18.066
1568081172.294,-63.965,25.391,36.621,52.734,2.930
1568081172.298,-63.477,27.344,33.691,63.965,27.344
1568081172.302,-48.340,29.297,26.855,19.043,80.078
1568081172.306,-50.293,27.832,24.414,-0.977,54.199
1568081172.310,-72.754,29.297,24.414,33.691,-13.184
1568081172.314,-86.914,30.273,26.855,51.270,-10.742
1568081172.317,-72.754,31.738,29.297,15.625,-33.203
1568081172.321,-48.340,33.203,28.809,-3.906,-23.926
1568081172.325,-58.594,27.344,27.344,26.855,30.762
1568081172.329,-78.613,22.949,32.227,51.758,61.523
1568081172.333,-64.941,28.809,32.715,31.738,68.848
1568081172.337,-41.504,32.227,21.973,2.441,75.195
1568081172.341,-33.691,31.250,21.973,18.555,28.809
1568081172.345,-14.160,29.297,26.855,56.152,-17.090
1568081172.349,21.484,23.926,28.320,53.711,35.645
1568081172.353,58.594,22.461,32.715,19.531,52.734
1568081172.357,67.383,24.414,37.109,20.996,39.062
1568081172.360,40.527,28.320,38.574,57.129,61.035
1568081172.364,28.809,32.715,33.691,61.523,56.641
1568081172.368,51.758,34.180,31.250,19.043,57.617
1568081172.372,61.035,30.762,34.668,0.000,111.328
1568081172.376,45.898,27.832,31.738,37.109,89.844
1568081172.380,36.621,28.809,29.297,58.594,47.852
1568081172.384,46.387,31.250,23.926,23.926,72.754
1568081172.388,62.500,29.785,17.578,4.395,39.551
1568081172.392,45.410,21.484,22.461,29.785,31.250
1568081172.396,10.742,22.461,23.926,47.363,35.645
1568081172.400,17.578,25.879,27.344,34.668,-4.395
1568081172.403,32.715,24.414,34.180,0.977,41.992
1568081172.407,20.996,26.855,34.668,5.859,62.012
1568081172.411,5.859,25.879,35.645,44.922,8.301
1568081172.415,0.977,24.414,30.762,35.156,22.461
1568081172.419,15.137,24.902,26.855,-7.324,25.391
1568081172.423,8.301,21.973,24.414,-9.277,32.227
1568081172.427,-19.531,20.508,20.508,31.250,70.312
1568081172.431,-29.297,20.020,20.508,44.922,30.273
1568081172.435,12.207,21.484,20.508,5.859,1.465
1568081172.439,107.422,28.809,28.809,-6.836,17.578
1568081172.442,198.730,35.156,38.574,33.203,9.277
1568081172.446,291.504,29.297,37.109,56.641,22.949
1568081172.450,404.297,28.320,32.227,25.391,53.223
1568081172.454,510.254,31.250,28.320,-2.441,20.508
1568081172.458,588.867,25.879,29.785,22.949,-7.324
1568081172.462,659.668,24.414,31.738,58.105,15.625
1568081172.466,739.746,28.809,29.785,41.992,35.156
1568081172.470,828.613,30.273,27.832,4.883,28.809
1568081172.474,883.789,27.344,22.461,10.254,-8.301
1568081172.478,887.695,28.809,20.996,47.363,36.133
1568081172.482,894.531,32.227,25.879,52.734,93.750
1568081172.485,916.504,35.156,27.344,12.695,45.898
1568081172.489,904.785,34.668,29.785,-1.953,33.203
1568081172.493,857.910,33.203,35.156,39.062,13.184
1568081172.497,812.988,33.203,34.180,57.129,17.578
1568081172.501,786.133,29.297,29.785,17.090,32.227
1568081172.505,737.305,27.344,26.367,-4.395,-9.766
1568081172.509,645.508,26.855,20.508,22.949,44.922
1568081172.513,558.594,22.949,23.438,55.664,56.152
1568081172.517,521.484,23.926,27.832,34.180,26.367
1568081172.521,496.094,27.832,25.879,-1.465,44.922
1568081172.525,424.805,27.344,32.227,16.602,62.500
1568081172.528,351.562,27.344,35.645,55.176,28.320
1568081172.532,314.453,29.297,29.297,50.781,59.082
1568081172.536,291.016,29.297,30.273,8.789,50.781
1568081172.540,245.117,31.738,32.715,8.789,27.832
1568081172.544,183.105,30.762,33.691,49.316,20.996
1568081172.548,152.344,22.461,35.156,55.176,61.035
1568081172.552,154.785,22.949,39.062,14.160,39.551
1568081172.556,141.602,29.297,42.480,1.953,-5.371
1568081172.560,106.445,30.273,41.992,41.504,53.711
1568081172.564,78.613,27.344,33.691,55.176,34.180
1568081172.567,68.359,27.832,20.508,10.742,38.574
1568081172.571,52.246,26.855,17.090,-8.301,45.898
1568081172.575,13.184,27.344,21.973,28.320,17.090
1568081172.579,-18.066,29.297,25.391,56.641,14.160
1568081172.583,-29.785,27.344,27.344,32.227,15.137
1568081172.587,-32.715,21.973,36.133,-2.441,-2.930
1568081172.591,-55.176,21.973,43.457,16.602,-31.738
1568081172.595,-109.375,23.926,34.180,47.363,-29.297
1568081172.599,-143.066,17.090,21.973,35.156,14.160
1568081172.603,-144.043,23.438,22.461,-1.953,41.504
1568081172.607,-163.086,32.227,21.484,-6.348,28.320
1568081172.610,-190.918,34.668,27.344,39.551,-6.348
1568081172.614,-192.383,35.156,34.180,55.664,67.383
1568081172.618,-175.293,29.297,30.762,16.602,62.012
1568081172.622,-168.457,29.785,29.297,0.977,-42.480
1568081172.626,-189.941,34.668,24.902,35.645,-1.953
1568081172.630,-204.590,36.133,25.879,59.570,29.297
1568081172.634,-191.406,37.109,27.832,21.973,85.449
1568081172.638,-174.316,32.227,27.832,-1.953,65.918
1568081172.642,-189.453,31.738,34.668,32.227,19.531
1568081172.646,-213.379,32.715,39.062,57.129,36.133
1568081172.650,-205.078,28.320,29.785,34.668,33.691
1568081172.653,-181.152,33.691,20.508,1.953,24.902
1568081172.657,-187.500,35.156,23.926,13.184,29.297
1568081172.661,-212.402,29.785,27.832,52.734,14.160
1568081172.665,-208.008,28.809,30.273,54.688,5.371
1568081172.669,-176.758,37.598,36.621,20.020,48.828
1568081172.673,-166.016,41.016,39.062,12.207,80.078
1568081172.677,-187.012,32.227,39.062,49.805,72.266
1568081172.681,-197.266,27.344,37.109,65.430,44.922
1568081172.685,-183.105,29.297,35.156,24.414,35.645
1568081172.689,-170.898,32.715,34.668,2.930,48.340
1568081172.692,-187.012,32.715,28.320,38.086,67.383
1568081172.696,-199.219,31.738,27.832,69.824,100.098
1568081172.700,-191.406,28.320,26.855,31.738,109.863
1568081172.704,-173.340,26.855,21.484,-0.977,83.496
1568081172.708,-175.781,27.344,20.020,30.762,6.836
1568081172.712,-187.012,25.391,18.555,58.594,6.348
1568081172.716,-166.992,31.250,26.367,47.852,25.879
1568081172.720,-140.625,37.598,33.203,14.648,20.508
1568081172.724,-136.719,37.598,30.762,14.648,-0.488
1568081172.728,-145.020,37.109,31.738,55.176,-3.906
1568081172.732,-139.648,38.574,33.691,59.082,55.176
1568081172.735,-124.512,36.133,31.250,17.090,46.387
1568081172.739,-122.559,33.691,27.832,10.254,46.875
1568081172.743,-137.695,28.809,25.391,50.293,-23.926
1568081172.747,-139.648,25.879,23.926,65.918,-10.742
1568081172.751,-117.676,22.461,26.367,25.391,62.012
1568081172.755,-102.051,24.414,31.250,3.418,13.672
1568081172.759,-108.887,31.250,36.133,36.621,-7.812
1568081172.763,-111.328,35.156,36.133,65.430,56.152
1568081172.767,-82.520,34.180,28.809,39.551,32.715
1568081172.771,-57.129,29.297,25.391,6.348,-17.578
1568081172.775,-66.895,29.297,27.344,23.926,20.020
1568081172.778,-76.660,28.809,31.738,59.570,41.504
1568081172.782,-65.918,32.715,32.715,51.270,56.641
1568081172.786,-43.945,33.691,34.668,11.230,36.621
1568081172.790,-37.109,26.855,30.273,15.625,14.160
1568081172.794,-53.223,22.461,23.438,56.152,42.969
1568081172.798,-55.176,22.949,22.949,58.105,60.547
1568081172.802,-32.715,22.461,22.949,15.137,38.086
1568081172.806,-20.508,27.344,24.414,9.277,25.879
1568081172.810,-32.227,30.762,28.809,51.758,74.707
1568081172.814,-41.504,25.391,36.621,70.312,55.176
1568081172.817,-28.809,22.461,34.180,29.785,50.781
1568081172.821,-16.602,19.531,25.879,-3.906,45.898
1568081172.825,-24.902,20.508,20.996,24.902,35.645
1568081172.829,-29.297,28.320,24.902,59.570,26.855
1568081172.833,-23.438,27.344,28.320,33.203,21.484
1568081172.837,-12.695,25.391,27.832,-0.488,46.875
1568081172.841,-10.254,29.297,34.668,21.484,41.016
1568081172.845,-19.043,29.297,33.691,54.199,41.504
1568081172.849,-9.766,25.879,20.020,40.039,-6.348
1568081172.853,24.414,26.855,14.648,3.906,-7.812
1568081172.857,34.668,31.738,17.090,11.230,41.504
1568081172.860,21.484,39.062,22.461,54.199,-10.254
1568081172.864,20.996,39.062,27.344,62.988,-23.438
1568081172.868,43.945,32.715,23.926,15.137,1.465
1568081172.872,60.059,30.273,18.066,-4.883,27.832
1568081172.876,44.434,30.762,23.438,37.598,18.555
1568081172.880,30.273,27.832,24.902,58.594,-0.977
1568081172.884,46.387,23.926,21.484,22.949,-1.953
1568081172.888,66.406,22.949,25.391,2.441,20.020
1568081172.892,65.918,20.996,37.598,47.363,48.828
1568081172.896,58.105,23.926,39.062,84.961,62.500
1568081172.900,54.199,38.086,30.762,36.133,60.059
1568081172.903,56.641,47.363,22.949,-20.508,-31.250
1568081172.907,55.176,39.062,18.066,2.441,-43.457
1568081172.911,32.715,38.574,16.113,40.527,44.922
1568081172.915,24.902,40.039,11.719,28.320,11.230
1568081172.919,51.758,36.133,10.254,-10.742,-22.461
1568081172.923,51.270,38.086,6.348,-28.809,8.789
1568081172.927,37.598,39.551,16.113,12.207,45.410
1568081172.931,54.199,38.574,23.926,38.086,18.555
1568081172.935,76.172,32.715,18.555,-4.395,69.336
1568081172.939,90.332,32.227,20.020,-18.066,108.887
1568081172.942,75.684,34.668,17.090,16.113,20.996
1568081172.946,57.129,29.297,15.137,38.086,20.020
1568081172.950,62.988,24.414,14.648,5.859,-19.531
1568081172.954,77.637,34.180,14.160,-19.531,-18.555
1568081172.958,76.172,43.945,21.484,16.113,41.992
1568081172.962,68.848,38.574,23.438,49.316,17.578
1568081172.966,83.984,30.273,18.555,28.809,29.297
1568081172.970,106.934,31.250,11.719,-8.301,49.805
1568081172.974,115.723,38.086,16.113,4.883,0.488
1568081172.978,104.980,40.039,25.391,49.316,-9.277
1568081172.982,107.422,36.621,30.273,49.805,37.109
1568081172.985,126.465,29.785,29.297,1.465,47.852
1568081172.989,122.559,28.320,28.809,-10.254,66.406
1568081172.993,103.027,28.320,27.344,32.715,80.078
1568081172.997,100.098,23.438,20.508,50.781,77.637
1568081173.001,128.906,26.367,20.508,12.695,43.945
1568081173.005,161.133,29.297,25.391,-8.789,-11.719
1568081173.009,167.969,29.785,28.809,26.855,14.648
1568081173.013,181.641,36.133,32.227,57.617,29.297
1568081173.017,211.914,34.180,22.461,23.926,38.574
1568081173.021,238.281,25.879,8.789,-12.207,59.570
1568081173.025,246.094,26.367,14.160,10.742,1.465
1568081173.028,253.418,28.320,29.785,47.363,19.531
1568081173.032,278.809,27.832,34.180,36.621,15.625
1568081173.036,315.918,31.738,30.273,2.441,17.578
1568081173.040,325.684,37.598,29.785,14.648,73.242
1568081173.044,322.266,38.574,31.250,52.246,21.484
1568081173.048,343.750,35.645,20.996,48.828,15.625
1568081173.052,378.906,32.227,13.184,6.836,13.184
1568081173.056,399.902,27.832,21.484,1.953,-4.395
1568081173.060,393.555,25.879,31.250,40.527,5.859
1568081173.064,395.508,29.297,37.109,56.152,31.250
1568081173.067,416.504,31.250,29.297,15.625,67.383
1568081173.071,421.387,30.273,22.949,-5.859,56.152
1568081173.075,389.648,30.273,22.949,26.367,-19.531
1568081173.079,364.746,30.762,28.320,57.129,-26.367
1568081173.083,379.395,34.180,32.715,31.250,14.648
1568081173.087,407.715,30.273,24.414,-8.301,3.906
1568081173.091,411.621,24.414,20.996,10.254,58.594
1568081173.095,401.855,25.879,21.484,44.434,24.414
1568081173.099,412.598,25.391,17.578,33.691,-24.902
1568081173.103,438.477,25.391,17.090,-2.930,44.434
1568081173.107,446.777,26.855,26.855,2.441,14.648
1568081173.110,441.895,26.855,33.203,40.527,1.953
1568081173.114,462.891,29.785,31.250,47.363,47.852
1568081173.118,499.512,32.715,29.297,14.160,51.270
1568081173.122,517.578,32.715,27.344,0.488,68.359
1568081173.126,510.254,31.250,23.438,33.691,20.508
1568081173.130,504.883,28.320,19.531,54.688,-42.969
1568081173.134,522.949,31.250,21.484,21.484,-1.953
1568081173.138,540.527,33.203,27.344,0.977,8.789
1568081173.142,531.250,29.297,35.645,34.180,3.418
1568081173.146,516.113,31.250,39.551,65.918,22.461
1568081173.150,519.531,33.203,40.039,41.992,-26.855
1568081173.153,539.551,31.738,36.133,6.348,3.906
1568081173.157,543.457,35.645,34.668,22.461,41.016
1568081173.161,527.344,33.691,35.156,59.082,40.039
1568081173.165,530.273,23.926,31.738,52.734,9.277
1568081173.169,562.500,21.484,33.691,14.648,53.711
1568081173.173,582.031,25.391,37.598,14.160,114.258
1568081173.177,576.172,29.785,33.203,51.758,83.496
1568081173.181,582.520,32.227,32.227,62.500,55.664
1568081173.185,603.516,29.297,29.297,19.531,28.320
1568081173.189,612.305,25.391,30.273,2.441,31.738
1568081173.192,594.727,25.391,36.621,40.039,65.430
1568081173.196,581.543,29.297,39.551,61.523,47.852
1568081173.200,594.727,29.785,34.668,25.879,54.688
1568081173.204,604.492,26.367,26.367,-0.488,71.777
1568081173.208,585.938,21.484,25.879,27.832,7.324
1568081173.212,568.359,20.508,27.832,62.500,-12.207
1568081173.216,570.801,20.996,28.809,47.852,27.344
1568081173.220,579.102,20.508,28.809,7.812,-14.648
1568081173.224,565.918,24.414,31.738,17.090,-43.457
1568081173.228,533.203,25.391,31.738,50.781,-9.766
1568081173.232,523.926,27.344,24.414,49.805,29.785
1568081173.235,529.785,26.367,22.949,5.859,80.566
1568081173.239,519.043,23.438,26.855,-1.465,67.871
1568081173.243,491.699,25.879,27.344,45.410,43.945
1568081173.247,474.121,25.391,24.414,53.223,19.043
1568081173.251,486.816,24.902,29.785,13.184,31.250
1568081173.255,489.746,23.438,38.086,0.488,22.461
1568081173.259,462.402,20.508,34.180,37.598,9.766
1568081173.263,431.152,24.414,23.438,63.965,7.812
1568081173.267,430.664,32.227,25.879,36.133,15.137
1568081173.271,442.383,38.086,39.062,9.277,43.945
1568081173.275,418.945,35.645,42.969,26.855,27.344
1568081173.278,389.160,29.297,42.480,55.664,54.199
1568081173.282,384.277,33.203,44.434,42.480,40.527
1568081173.286,396.973,38.086,44.434,8.789,19.043
1568081173.290,392.090,31.738,44.434,16.602,41.016
1568081173.294,369.141,30.762,42.480,56.152,38.574
1568081173.298,358.398,29.297,36.621,57.129,9.766
1568081173.302,372.559,31.250,32.715,12.207,-10.742
1568081173.306,394.531,40.527,30.762,15.137,47.363
1568081173.310,375.488,37.598,34.668,64.941,21.973
1568081173.314,339.355,32.227,41.992,68.359,-17.090
1568081173.317,344.727,31.738,46.875,18.555,-16.113
1568081173.321,348.145,26.855,43.457,-3.418,-24.902
1568081173.325,322.754,26.855,34.668,30.762,41.016
1568081173.329,311.523,33.203,38.086,67.383,74.707
1568081173.333,312.988,37.598,43.945,31.250,62.500
1568081173.337,316.895,36.621,41.504,-15.625,36.133
1568081173.341,301.758,34.180,41.992,14.160,17.090
1568081173.345,270.020,35.645,48.340,51.270,42.969
1568081173.349,275.879,36.133,51.270,39.062,24.902
1568081173.353,298.340,31.250,42.480,7.324,14.160
1568081173.357,286.621,25.879,29.785,3.418,57.617
1568081173.360,262.207,30.273,33.203,44.922,63.965
1568081173.364,260.742,34.180,31.250,57.617,11.230
1568081173.368,283.691,33.691,24.414,14.648,-5.859
1568081173.372,289.551,33.203,28.320,4.883,65.918
1568081173.376,271.484,33.203,29.297,42.969,82.520
1568081173.380,269.531,35.156,34.668,65.918,26.855
1568081173.384,292.969,35.156,43.457,33.203,4.883
1568081173.388,312.500,34.180,37.598,8.789,31.250
1568081173.392,304.199,38.574,36.621,43.457,42.969
1568081173.396,291.504,40.039,40.039,73.242,0.000
1568081173.400,298.340,35.156,30.273,47.852,44.922
1568081173.403,311.523,38.086,23.438,7.324,76.172
1568081173.407,296.875,39.551,24.902,17.578,47.363
1568081173.411,261.719,38.574,26.855,51.270,28.320
1568081173.415,255.859,35.645,27.832,42.969,26.855
1568081173.419,274.902,34.668,31.250,6.348,34.180
1568081173.423,266.113,34.668,37.598,8.301,3.418
1568081173.427,229.492,33.203,34.668,50.293,8.789
1568081173.431,212.891,34.180,26.855,61.035,39.551
1568081173.435,216.309,32.715,26.855,14.648,45.898
1568081173.439,212.402,30.273,34.668,-1.953,8.301
1568081173.442,186.523,31.738,36.621,38.574,-18.555
1568081173.446,166.992,32.227,29.785,56.152,23.926
1568081173.450,175.781,32.715,28.320,21.484,17.090
1568081173.454,187.012,41.504,32.715,0.977,10.254
1568081173.458,165.039,41.504,29.785,29.785,18.066
1568081173.462,127.441,27.344,25.391,57.129,-11.230
1568081173.466,117.188,25.391,27.344,40.039,-17.578
1568081173.470,123.535,30.273,27.344,8.301,6.836
1568081173.474,115.234,26.855,28.320,17.090,57.129
1568081173.478,101.074,27.344,30.762,51.758,6.348
1568081173.482,102.539,28.809,30.273,50.781,10.742
1568081173.485,126.465,24.902,26.855,12.695,81.543
1568081173.489,141.113,25.391,31.738,10.742,30.762
1568081173.493,124.512,27.344,36.133,50.781,1.953
1568081173.497,123.535,35.645,29.297,64.453,22.461
1568081173.501,144.531,42.969,21.973,20.996,-9.766
1568081173.505,140.625,41.504,22.461,3.418,1.465
1568081173.509,101.074,40.527,26.855,41.504,-24.902
1568081173.513,73.730,40.039,29.785,62.500,-3.418
1568081173.517,84.473,36.133,30.273,33.203,57.617
1568081173.521,106.934,31.738,29.297,5.859,6.836
1568081173.525,92.773,30.762,29.297,27.832,2.441
1568081173.528,72.754,32.227,28.320,60.547,27.832
1568081173.532,76.172,31.250,24.414,41.504,61.035
1568081173.536,76.660,28.320,24.414,1.953,86.426
1568081173.540,72.266,28.320,28.809,18.066,60.059
1568081173.544,48.340,32.227,29.785,63.965,-1.465
1568081173.548,28.809,30.762,25.391,61.035,-11.230
1568081173.552,31.250,29.297,23.438,19.531,-19.043
1568081173.556,7.812,28.809,25.391,13.184,-14.648
1568081173.560,-6.836,31.250,27.832,55.176,-7.812
1568081173.564,21.484,30.273,27.832,70.312,16.113
1568081173.567,75.195,25.391,23.926,25.391,70.312
1568081173.571,125.977,29.785,21.484,4.395,95.703
1568081173.575,139.160,32.227,24.902,43.945,70.801
1568081173.579,144.043,31.738,27.344,68.359,69.824
1568081173.583,173.828,31.250,23.926,35.645,67.383
1568081173.587,205.078,31.738,20.020,1.465,41.016
1568081173.591,207.031,35.156,20.020,21.973,18.066
1568081173.595,198.242,34.180,22.949,62.012,14.160
1568081173.599,208.008,32.715,22.949,49.805,26.855
1568081173.603,235.840,35.156,20.996,8.789,-11.719
1568081173.607,244.629,32.715,21.484,8.789,-3.906
1568081173.610,227.051,24.902,25.391,44.922,62.500
1568081173.614,223.633,24.414,26.367,51.758,75.684
1568081173.618,248.047,26.855,23.438,8.789,53.711
1568081173.622,253.418,23.926,19.531,-0.977,47.852
1568081173.626,229.980,26.367,19.043,42.969,64.941
1568081173.630,226.562,27.832,21.484,61.523,78.613
1568081173.634,242.676,25.391,18.066,18.066,3.418
1568081173.638,253.906,27.832,17.578,-7.812,17.578
1568081173.642,243.652,30.762,23.438,28.320,86.426
1568081173.646,229.492,25.879,30.273,58.105,12.207
1568081173.650,236.816,25.879,32.227,28.320,-0.977
1568081173.653,257.324,29.785,28.809,-3.418,26.367
1568081173.657,248.535,31.250,25.391,19.043,38.086
1568081173.661,221.191,31.738,20.020,49.805,59.082
1568081173.665,224.121,29.785,13.672,36.133,44.922
1568081173.669,259.766,29.785,14.648,6.348,45.898
1568081173.673,257.812,25.879,26.855,10.254,38.086
1568081173.677,213.379,25.391,32.715,30.273,-3.906
1568081173.681,210.938,25.879,32.715,34.180,6.348
1568081173.685,243.164,24.414,32.227,7.324,3.418
1568081173.689,248.047,22.461,35.645,-4.395,-0.488
1568081173.692,231.934,25.391,38.086,34.180,2.441
1568081173.696,220.703,29.297,32.715,55.664,-8.301
1568081173.700,225.586,29.297,27.832,15.137,-6.348
1568081173.704,236.328,29.297,25.391,-12.695,-10.254
1568081173.708,220.703,26.855,25.391,16.602,-5.859
1568081173.712,196.777,25.391,27.832,47.852,55.176
1568081173.716,206.543,28.320,31.738,32.715,55.176
1568081173.720,226.562,30.273,32.715,-1.953,-5.859
1568081173.724,216.797,34.180,30.762,10.742,12.695
1568081173.728,193.848,32.715,33.203,47.363,37.109
1568081173.732,190.918,26.367,37.598,40.527,17.090
1568081173.735,214.844,31.738,36.133,2.441,14.648
1568081173.739,219.238,34.180,36.621,1.465,9.766
1568081173.743,190.918,28.320,41.504,40.527,12.695
1568081173.747,181.641,24.414,42.969,51.270,-4.883
1568081173.751,202.148,27.832,39.551,15.137,-16.602
1568081173.755,210.449,31.738,38.574,1.953,25.391
1568081173.759,191.406,31.250,34.668,38.574,27.344
1568081173.763,176.758,23.926,30.273,62.500,15.625
1568081173.767,188.477,23.926,28.809,24.902,10.742
1568081173.771,201.172,26.855,27.344,-7.324,-34.180
1568081173.775,193.848,30.273,32.227,25.391,-54.199
1568081173.778,182.129,33.691,39.062,67.871,-10.254
1568081173.782,185.059,27.832,40.039,49.316,3.906
1568081173.786,199.219,26.367,30.273,4.883,0.000
1568081173.790,196.289,29.297,28.809,17.090,24.414
1568081173.794,170.410,29.297,34.180,57.129,68.359
1568081173.798,164.062,32.227,32.715,49.805,77.637
1568081173.802,183.105,35.156,26.367,2.930,88.379
1568081173.806,183.594,32.715,24.414,-3.906,59.570
1568081173.810,160.645,27.344,31.250,39.551,3.906
1568081173.814,156.250,28.809,32.227,55.176,51.758
1568081173.817,176.270,31.738,28.320,14.648,-6.348
1568081173.821,187.500,24.902,23.438,0.977,-8.789
1568081173.825,168.945,21.484,26.855,40.039,37.109
1568081173.829,148.926,25.879,34.668,66.895,31.738
1568081173.833,160.645,30.762,33.203,35.645,-4.395
1568081173.837,175.781,33.691,26.855,0.977,-29.297
1568081173.841,162.598,32.227,31.738,25.879,24.414
1568081173.845,145.508,28.809,38.574,61.035,58.594
1568081173.849,157.227,28.809,35.156,49.316,30.762
1568081173.853,174.316,28.320,26.855,10.742,-21.973
1568081173.857,169.434,32.227,22.949,10.742,30.762
1568081173.860,147.461,33.203,24.414,45.410,56.152
1568081173.864,142.090,29.297,27.344,48.340,16.602
1568081173.868,159.180,27.344,28.809,11.719,61.523
1568081173.872,163.086,24.902,30.273,0.488,30.273
1568081173.876,145.020,27.832,34.668,40.039,-7.812
1568081173.880,136.719,30.762,31.250,60.059,22.461
1568081173.884,148.438,34.668,23.438,20.508,55.664
1568081173.888,159.668,39.551,27.832,-0.488,73.242
1568081173.892,144.531,36.621,33.691,33.203,18.066
1568081173.896,127.441,32.227,33.203,61.523,14.160
1568081173.900,138.672,30.273,28.320,34.180,48.828
1568081173.903,156.250,28.809,27.832,0.000,3.418
1568081173.907,144.531,28.809,34.668,22.461,-27.832
1568081173.911,125.977,30.273,36.621,58.594,-22.949
1568081173.915,125.977,27.344,23.438,44.434,1.465
1568081173.919,141.113,24.902,14.648,-0.488,47.852
1568081173.923,139.160,24.902,18.555,-1.953,54.199
1568081173.927,111.328,25.879,21.484,41.504,73.242
1568081173.931,105.469,30.762,28.320,56.152,57.617
1568081173.935,126.953,30.273,35.156,12.207,11.230
1568081173.939,132.812,26.855,31.250,-5.371,26.367
1568081173.942,106.445,29.785,27.344,29.785,69.336
1568081173.946,104.004,30.273,28.809,49.805,94.238
1568081173.950,125.488,29.297,29.297,19.043,29.297
1568081173.954,133.301,28.320,28.320,-4.883,0.977
1568081173.958,125.000,26.855,30.273,24.902,66.406
1568081173.962,112.793,25.391,30.273,62.012,38.086
1568081173.966,123.535,27.344,27.832,50.781,24.902
1568081173.970,138.672,28.809,24.902,9.766,11.230
1568081173.974,128.906,26.855,27.344,22.461,-16.602
1568081173.978,114.258,25.391,31.250,68.848,12.207
1568081173.982,114.258,23.926,26.367,58.105,20.020
1568081173.985,127.930,24.902,18.555,12.695,1.953
1568081173.989,132.324,27.344,21.484,10.254,60.547
1568081173.993,112.305,26.855,35.645,46.875,51.758
1568081173.997,97.656,22.461,35.156,56.152,41.504
1568081174.001,115.234,28.320,25.879,17.578,45.898
1568081174.005,124.512,31.738,30.273,4.883,21.484
1568081174.009,92.773,30.762,41.016,42.480,48.340
1568081174.013,69.824,36.621,41.504,63.965,24.414
1568081174.017,85.938,35.645,27.344,30.762,-9.766
1568081174.021,94.727,26.367,21.484,-0.488,-42.969
1568081174.025,65.918,22.949,26.367,13.184,32.227
1568081174.028,51.758,24.414,28.809,43.945,49.316
1568081174.032,68.848,23.926,28.809,36.621,-36.133
1568081174.036,80.078,20.020,29.297,-8.789,11.230
1568081174.040,73.730,20.020,28.320,-4.395,92.773
1568081174.044,60.547,27.344,33.691,51.758,63.477
1568081174.048,62.500,35.156,38.574,54.199,65.430
1568081174.052,80.078,31.250,36.133,12.207,50.781
1568081174.056,82.520,26.367,34.180,11.719,-28.320
1568081174.060,61.035,26.855,29.785,46.387,-30.273
1568081174.064,52.734,26.367,24.902,53.711,13.184
1568081174.067,70.801,23.926,22.949,14.160,30.762
1568081174.071,83.984,26.367,26.367,-2.441,29.297
1568081174.075,72.754,30.273,28.320,39.551,14.648
1568081174.079,66.406,30.273,31.250,66.895,9.277
1568081174.083,84.961,27.344,36.133,31.250,26.367
1568081174.087,97.656,23.926,27.832,-1.953,-16.113
1568081174.091,81.055,22.461,22.461,26.367,-61.035
1568081174.095,52.734,26.367,29.785,63.477,12.695
1568081174.099,58.105,33.691,35.645,50.293,56.152
1568081174.103,87.402,35.645,38.086,14.648,31.738
1568081174.107,83.496,38.574,37.109,24.902,-12.695
1568081174.110,55.176,35.645,40.039,63.477,-16.602
1568081174.114,57.129,30.273,46.875,60.059,39.551
1568081174.118,82.031,27.344,39.551,14.648,33.691
1568081174.122,90.820,24.902,33.203,10.254,-6.348
1568081174.126,77.148,25.391,32.715,50.293,4.395
1568081174.130,69.824,25.391,30.762,62.012,44.434
1568081174.134,91.797,25.391,27.832,23.926,66.406
1568081174.138,107.422,26.367,25.391,-1.465,15.625
1568081174.142,92.285,24.902,31.250,35.645,41.504
1568081174.146,77.637,21.973,34.180,62.988,113.770
1568081174.150,90.332,23.926,28.320,28.320,90.332
1568081174.153,112.793,30.273,23.926,-4.883,31.250
1568081174.157,105.469,34.668,27.832,19.043,-41.504
1568081174.161,87.891,34.668,37.109,60.547,-23.438
1568081174.165,92.773,32.715,40.527,52.734,26.855
1568081174.169,119.629,36.133,35.645,10.254,61.035
1568081174.173,121.094,39.551,31.250,7.812,45.898
1568081174.177,93.262,34.180,28.809,46.875,33.203
1568081174.181,86.426,30.762,26.367,55.664,31.250
1568081174.185,111.816,28.320,29.297,15.137,-3.418
1568081174.189,127.930,30.273,33.203,7.324,-10.742
1568081174.192,108.398,29.785,34.180,46.875,16.113
1568081174.196,96.680,25.391,38.086,64.453,1.465
1568081174.200,114.746,26.367,40.039,31.738,45.410
1568081174.204,126.465,31.738,35.645,11.230,75.195
1568081174.208,105.469,27.832,33.691,39.551,61.523
1568081174.212,88.867,22.461,33.203,64.941,77.637
1568081174.216,97.168,27.344,34.180,39.551,62.988
1568081174.220,113.281,27.344,39.062,6.348,66.406
1568081174.224,107.422,23.926,38.574,18.066,38.086
1568081174.228,86.914,27.344,34.180,54.688,-44.434
1568081174.232,88.379,28.809,28.809,45.898,-35.645
1568081174.235,109.863,29.297,30.762,2.441,19.531
1568081174.239,115.234,29.297,37.109,10.742,-24.414
1568081174.243,100.098,29.297,38.574,61.035,10.254
1568081174.247,94.238,32.715,33.203,72.266,-2.930
1568081174.251,105.957,36.133,28.320,27.344,7.324
1568081174.255,112.305,34.180,28.320,11.719,47.363
1568081174.259,93.262,32.715,32.715,49.805,16.113
1568081174.263,81.543,32.715,35.156,74.219,35.645
1568081174.267,95.215,29.785,29.785,41.504,33.203
1568081174.271,108.887,29.785,25.391,12.695,47.363
1568081174.275,98.145,29.785,30.273,38.574,26.367
1568081174.278,84.961,26.367,36.621,67.871,-13.672
1568081174.282,95.215,21.973,37.109,47.363,59.082
1568081174.286,108.887,20.020,30.762,7.812,62.500
1568081174.290,100.098,21.484,27.832,16.113,41.016
1568081174.294,82.520,24.902,29.297,59.570,19.043
1568081174.298,79.102,27.832,25.879,58.105,-30.762
1568081174.302,95.703,27.832,25.391,13.672,45.898
1568081174.306,101.562,31.250,31.250,10.254,56.641
1568081174.310,75.195,30.273,30.762,48.828,66.406
1568081174.314,66.895,24.414,32.227,62.988,53.711
1568081174.317,93.262,23.926,37.109,24.414,3.418
1568081174.321,109.863,27.832,36.621,4.883,35.156
1568081174.325,90.332,30.273,34.180,40.039,53.711
1568081174.329,77.637,32.715,30.762,63.965,43.945
1568081174.333,92.285,33.691,25.879,34.180,10.742
1568081174.337,101.562,32.227,24.414,4.395,-10.742
1568081174.341,83.008,30.273,27.832,25.879,42.480
1568081174.345,70.312,30.273,30.273,61.523,31.250
1568081174.349,78.125,33.203,25.879,43.457,61.035
1568081174.353,92.773,30.273,24.414,0.000,50.293
1568081174.357,94.727,27.832,28.320,10.742,-18.066
1568081174.360,78.125,29.297,28.809,49.805,43.457
1568081174.364,72.266,26.855,26.855,48.340,29.785
1568081174.368,88.379,27.832,20.996,6.348,27.832
1568081174.372,93.262,32.227,18.555,0.000,47.852
1568081174.376,72.754,36.621,21.484,40.527,21.973
1568081174.380,68.359,37.109,20.996,54.688,46.387
1568081174.384,85.938,34.180,21.973,15.137,36.133
1568081174.388,95.703,33.691,24.902,-4.395,59.570
1568081174.392,79.102,33.691,25.391,32.715,46.387
1568081174.396,64.453,35.645,29.297,58.105,36.621
1568081174.400,75.684,37.109,29.297,27.344,28.809
1568081174.403,92.285,35.156,25.391,-4.883,0.488
1568081174.407,83.008,35.156,26.855,19.531,71.777
1568081174.411,63.477,37.598,28.809,60.059,63.965
1568081174.415,71.777,33.691,30.273,52.246,-22.949
1568081174.419,92.285,32.227,35.645,12.695,19.531
1568081174.423,91.797,35.156,38.086,16.113,32.715
1568081174.427,73.730,35.645,38.086,54.199,-11.719
1568081174.431,68.359,34.180,32.715,55.664,49.805
1568081174.435,85.938,30.762,28.809,8.789,23.926
1568081174.439,92.773,27.344,29.785,0.000,25.391
1568081174.442,75.195,30.762,32.715,43.457,75.684
1568081174.446,66.406,36.621,38.574,64.941,37.598
1568081174.450,84.473,33.691,37.598,31.250,-1.953
1568081174.454,98.633,31.738,33.203,8.301,-9.766
1568081174.458,85.449,34.668,32.227,37.598,7.812
1568081174.462,63.965,32.715,31.250,61.035,17.578
1568081174.466,70.801,31.738,28.320,36.133,33.203
1568081174.470,89.355,28.320,27.344,-1.465,31.738
1568081174.474,81.055,27.344,29.785,12.207,7.324
1568081174.478,66.406,33.691,27.832,56.641,24.902
1568081174.482,69.824,32.227,22.461,49.316,32.715
1568081174.485,81.055,30.762,18.555,0.000,51.270
1568081174.489,79.102,31.250,18.066,-2.441,64.453
1568081174.493,63.965,29.297,22.461,44.434,37.109
1568081174.497,60.547,28.320,30.273,55.664,38.086
1568081174.501,78.613,28.809,34.668,17.090,28.320
1568081174.505,87.891,28.809,34.180,7.812,13.184
1568081174.509,67.383,27.832,30.762,42.480,27.832
1568081174.513,55.176,27.832,31.250,60.547,-26.367
1568081174.517,70.312,25.879,29.785,23.926,-20.996
1568081174.521,88.379,26.855,28.320,-2.441,30.762
1568081174.525,77.637,28.809,33.691,28.809,28.320
1568081174.528,55.664,28.320,34.668,58.105,77.148
1568081174.532,64.453,27.832,32.227,36.133,48.340
1568081174.536,82.031,27.344,29.297,-2.930,-1.465
1568081174.540,71.777,27.344,24.414,7.812,-33.203
1568081174.544,55.664,26.367,24.902,50.293,9.277
1568081174.548,60.547,25.391,21.973,48.340,75.684
1568081174.552,83.984,25.879,18.555,5.371,50.293
1568081174.556,85.449,26.367,21.484,1.465,53.223
1568081174.560,67.383,29.297,29.297,43.457,65.918
1568081174.564,56.152,29.297,35.645,58.105,50.293
1568081174.567,65.918,29.785,33.203,14.648,32.227
1568081174.571,86.426,27.344,30.762,2.930,45.410
1568081174.575,86.426,28.320,38.086,55.176,65.430
1568081174.579,60.547,31.738,41.016,67.871,0.488
1568081174.583,61.035,31.250,33.203,15.625,-31.250
1568081174.587,89.844,27.344,31.738,-2.441,-14.648
1568081174.591,71.289,20.996,36.133,29.785,-22.949
1568081174.595,49.316,18.555,34.668,57.617,7.812
1568081174.599,62.988,21.973,26.855,39.062,47.852
1568081174.603,93.262,21.484,24.414,3.906,93.262
1568081174.607,92.285,25.391,24.902,14.648,67.383
1568081174.610,67.871,28.320,25.879,54.199,-3.906
1568081174.614,64.941,22.949,29.297,52.734,-36.621
1568081174.618,83.008,23.438,29.297,8.301,27.832
1568081174.622,89.355,24.902,28.320,1.953,83.496
1568081174.626,72.266,17.578,30.762,46.875,6.836
1568081174.630,61.035,14.648,31.738,62.012,19.043
1568081174.634,82.520,19.043,32.227,24.414,57.617
1568081174.638,93.750,20.020,33.691,6.348,68.848
1568081174.642,71.777,18.555,36.621,36.133,90.332
1568081174.646,59.082,20.020,39.551,62.012,59.570
1568081174.650,69.336,25.879,35.156,31.250,3.906
1568081174.653,85.938,29.297,28.809,-2.930,-20.996
1568081174.657,77.148,25.391,28.809,24.902,-40.039
1568081174.661,54.199,21.484,28.320,60.547,-41.016
1568081174.665,61.035,19.531,29.297,46.387,11.230
1568081174.669,84.473,21.484,29.785,6.836,5.371
1568081174.673,80.078,19.531,26.855,11.230,10.254
1568081174.677,59.570,17.578,24.902,52.734,38.574
1568081174.681,60.059,22.949,27.832,57.129,84.473
1568081174.685,77.148,25.879,36.621,19.043,42.480
1568081174.689,84.961,26.367,36.621,9.766,-16.602
1568081174.692,66.406,23.926,29.297,49.805,4.883
1568081174.696,49.316,19.043,27.344,64.453,61.035
1568081174.700,64.453,22.461,26.367,20.508,138.672
1568081174.704,81.055,21.973,24.902,-3.418,84.473
1568081174.708,66.406,19.531,26.367,30.273,0.977
1568081174.712,54.688,21.484,28.320,64.941,6.348
1568081174.716,65.918,22.949,28.320,43.945,65.918
1568081174.720,83.008,22.949,27.832,8.789,70.312
1568081174.724,80.566,27.344,33.691,26.855,31.738
1568081174.728,63.965,30.273,40.527,65.430,28.809
1568081174.732,64.453,27.832,40.039,53.711,49.316
1568081174.735,80.566,29.297,33.691,5.859,75.684
1568081174.739,81.543,31.250,29.297,4.395,37.109
1568081174.743,60.547,29.785,30.762,45.898,29.297
1568081174.747,62.012,33.203,38.086,67.383,33.691
1568081174.751,83.984,34.180,35.645,33.203,-21.973
1568081174.755,86.914,26.367,27.344,11.719,13.184
1568081174.759,65.918,15.625,31.738,48.828,57.617
1568081174.763,64.453,14.648,38.086,78.125,11.719
1568081174.767,84.473,32.227,36.133,38.086,-20.508
1568081174.771,73.242,40.039,26.855,-14.160,33.203
1568081174.775,58.105,29.785,22.461,20.996,10.254
1568081174.778,54.199,36.621,18.066,62.988,-3.418
1568081174.782,54.199,36.621,18.066,31.250,66.895
1568081174.786,70.312,31.738,16.113,-4.395,80.078
1568081174.790,66.406,45.410,10.254,5.859,41.504
1568081174.794,51.270,48.340,16.602,42.969,30.273
1568081174.798,61.523,44.434,23.438,43.457,42.480
1568081174.802,82.520,44.434,26.855,2.441,6.836
1568081174.806,80.566,39.062,23.926,-0.488,22.949
1568081174.810,60.059,36.133,21.973,42.969,17.090
1568081174.814,58.105,38.574,23.438,57.129,-23.438
1568081174.817,77.637,42.480,22.949,17.090,2.441
1568081174.821,90.820,43.457,20.508,-0.977,30.273
1568081174.825,73.730,41.504,22.461,41.016,16.113
1568081174.829,59.082,41.504,22.949,65.430,-13.672
1568081174.833,73.730,41.992,21.973,30.762,34.668
1568081174.837,94.727,39.062,23.438,0.000,29.297
1568081174.841,86.914,43.457,21.973,22.461,38.574
1568081174.845,64.453,43.457,21.484,55.176,53.223
1568081174.849,71.289,40.039,26.367,43.945,2.441
1568081174.853,91.797,41.016,26.367,11.719,22.949
1568081174.857,81.543,38.086,25.879,17.578,35.645
1568081174.860,54.688,33.691,25.391,52.734,78.125
1568081174.864,50.781,33.691,22.949,50.781,48.340
1568081174.868,70.312,31.250,21.973,5.859,33.691
1568081174.872,79.102,32.227,22.461,2.930,88.379
1568081174.876,59.570,36.621,24.902,43.945,64.941
1568081174.880,51.270,41.504,24.902,56.152,79.590
1568081174.884,68.848,42.480,26.855,20.508,30.762
1568081174.888,73.730,37.598,30.273,-0.977,-10.254
1568081174.892,58.105,35.645,30.762,31.738,18.555
1568081174.896,49.805,37.598,32.227,60.547,42.969
1568081174.900,61.035,39.551,31.738,32.715,57.129
1568081174.903,74.707,42.480,27.832,-2.930,63.477
1568081174.907,62.500,42.969,20.508,20.996,15.625
1568081174.911,47.363,42.969,21.484,60.547,-35.156
1568081174.915,52.246,43.945,27.832,48.828,32.715
1568081174.919,71.777,39.062,28.809,7.324,33.691
1568081174.923,70.312,38.086,30.273,5.371,29.297
1568081174.927,46.387,39.062,25.879,39.062,26.367
1568081174.931,40.527,35.645,22.949,43.457,26.855
1568081174.935,56.152,38.086,26.855,1.465,61.523
1568081174.939,65.430,40.527,27.832,-8.301,49.805
1568081174.942,45.898,41.504,24.414,33.691,9.277
1568081174.946,33.691,40.039,24.902,58.594,30.273
1568081174.950,53.223,41.504,29.297,22.461,20.020
1568081174.954,65.918,44.434,28.809,-3.906,-15.137
1568081174.958,47.363,34.180,27.344,27.344,5.859
1568081174.962,32.227,30.762,29.785,54.199,60.547
1568081174.966,46.875,32.715,33.203,30.762,-20.508
1568081174.970,68.848,33.203,32.227,1.953,-42.969
1568081174.974,61.523,33.691,31.738,19.043,15.137
1568081174.978,41.016,36.621,32.227,57.617,21.973
1568081174.982,44.434,41.504,29.297,48.828,26.367
1568081174.985,63.965,41.504,28.809,1.465,39.551
1568081174.989,64.453,42.969,27.344,2.930,-7.812
1568081174.993,39.551,40.039,20.996,40.039,-7.324
1568081174.997,35.645,36.133,15.625,42.969,77.148
1568081175.001,67.383,37.598,16.602,10.254,42.480
1568081175.005,64.941,34.180,28.809,-15.625,-14.648
1568081175.009,31.738,32.715,34.180,7.324,-6.348
1568081175.013,31.250,32.715,40.039,43.945,23.438
1568081175.017,45.410,29.785,43.945,9.277,1.465
1568081175.021,69.336,31.738,36.133,-7.812,-18.066
1568081175.025,64.453,30.273,41.992,31.250,-20.996
1568081175.028,21.484,25.391,45.410,45.410,26.855
1568081175.032,32.715,20.508,39.551,33.203,88.379
1568081175.036,74.219,20.508,39.062,13.672,28.809
1568081175.040,66.895,27.344,41.016,28.809,2.441
1568081175.044,44.922,29.297,44.922,72.754,74.219
1568081175.048,54.688,29.785,47.363,70.801,78.613
1568081175.052,70.312,29.785,47.852,20.996,51.270
1568081175.056,69.824,25.391,46.875,14.160,39.551
1568081175.060,52.246,24.902,41.016,50.293,38.574
1568081175.064,46.387,25.879,37.598,57.129,31.738
1568081175.067,66.895,22.461,41.016,15.625,-13.184
1568081175.071,76.172,22.949,40.039,-1.953,-13.672
1568081175.075,49.316,26.367,41.504,33.691,49.805
1568081175.079,36.133,26.855,47.363,62.500,76.172
1568081175.083,59.570,34.180,41.016,33.691,27.344
1568081175.087,74.707,36.133,32.227,1.465,36.621
1568081175.091,64.453,30.762,31.738,29.297,38.086
1568081175.095,45.898,32.715,37.109,66.895,29.297
1568081175.099,53.711,35.645,40.039,50.293,50.293
1568081175.103,73.242,32.227,40.527,14.648,0.000
1568081175.107,68.848,30.273,45.898,26.367,-6.836
1568081175.110,43.457,26.367,47.363,62.500,35.156
1568081175.114,41.992,25.391,41.016,62.012,60.547
1568081175.118,61.523,25.879,33.203,12.695,39.551
1568081175.122,62.988,24.902,31.738,6.348,-16.113
1568081175.126,45.410,26.855,36.133,56.641,37.598
1568081175.130,36.133,31.738,34.668,66.406,50.781
1568081175.134,53.223,35.645,30.762,20.508,-20.508
1568081175.138,66.895,33.203,34.180,2.930,-9.766
1568081175.142,50.293,32.227,35.156,37.598,47.852
1568081175.146,36.621,31.738,27.344,59.082,98.633
1568081175.150,52.734,31.250,25.391,27.344,75.195
1568081175.153,69.336,27.832,25.391,-2.930,26.367
1568081175.157,60.547,29.297,27.832,18.066,23.438
1568081175.161,43.945,34.180,38.574,54.688,11.719
1568081175.165,42.969,33.203,40.039,41.016,47.363
1568081175.169,58.594,33.203,29.297,-2.930,42.480
1568081175.173,59.082,37.598,26.855,5.371,-10.254
1568081175.177,36.133,37.598,31.250,52.734,21.973
1568081175.181,36.621,31.738,27.344,58.594,20.508
1568081175.185,60.059,24.902,25.391,11.719,23.438
1568081175.189,64.453,23.438,31.250,-2.930,62.988
1568081175.192,41.504,27.344,37.598,35.645,48.828
1568081175.196,32.227,34.180,40.039,57.617,72.754
1568081175.200,49.316,32.715,28.320,17.578,86.426
1568081175.204,62.500,30.762,26.367,-4.883,97.656
1568081175.208,53.711,34.180,32.227,31.250,61.523
1568081175.212,44.922,36.621,25.879,61.035,-31.738
1568081175.216,55.664,38.086,23.438,33.203,-9.277
1568081175.220,74.219,36.133,24.902,-0.488,35.645
1568081175.224,70.801,35.156,27.832,19.043,84.961
1568081175.228,52.734,36.133,34.668,56.152,68.359
1568081175.232,50.781,38.086,34.180,48.340,50.293
1568081175.235,65.430,35.645,27.344,3.418,8.301
1568081175.239,65.918,30.273,29.785,-0.488,-37.109
1568081175.243,42.969,23.926,34.180,40.039,-10.254
1568081175.247,34.668,22.461,30.762,47.363,37.109
1568081175.251,57.129,30.762,29.297,7.324,4.883
1568081175.255,63.965,31.738,27.344,-8.789,8.789
1568081175.259,46.875,28.809,32.715,34.668,17.090
1568081175.263,40.039,31.250,35.156,61.035,-18.555
1568081175.267,58.105,33.203,26.367,23.926,-27.832
1568081175.271,74.219,32.227,21.973,0.488,-43.945
1568081175.275,61.523,34.180,22.461,32.227,26.855
1568081175.278,45.410,34.180,26.855,62.988,69.336
1568081175.282,53.223,27.832,28.320,33.691,47.363
1568081175.286,68.359,26.367,26.855,-4.883,54.199
1568081175.290,64.941,28.320,33.203,15.137,-1.465
1568081175.294,47.852,29.785,37.109,55.664,15.137
1568081175.298,46.387,33.203,25.391,51.270,22.949
1568081175.302,70.312,33.691,17.090,11.719,18.555
1568081175.306,74.707,32.227,22.949,10.742,88.867
1568081175.310,50.293,35.156,29.785,50.781,66.406
1568081175.314,51.758,38.574,30.762,68.848,32.715
1568081175.317,76.172,36.621,31.250,37.109,-4.883
1568081175.321,65.918,31.250,36.621,3.906,-13.184
1568081175.325,37.598,33.691,41.504,30.762,30.762
1568081175.329,36.133,31.738,42.480,60.547,30.273
1568081175.333,50.293,20.996,36.621,21.973,-14.160
1568081175.337,73.242,24.414,32.227,1.953,-27.344
1568081175.341,55.664,26.367,35.156,26.855,5.859
1568081175.345,20.996,22.949,33.691,47.363,38.086
1568081175.349,39.062,24.902,27.832,39.062,-14.160
1568081175.353,68.848,31.250,32.227,9.766,-8.789
1568081175.357,64.941,35.156,32.227,18.066,24.902
1568081175.360,39.062,34.180,32.227,55.176,17.578
1568081175.364,45.410,35.156,37.109,61.035,39.551
1568081175.368,65.918,33.203,31.250,18.066,28.809
1568081175.372,63.477,26.367,25.879,8.301,17.090
1568081175.376,40.527,26.367,29.785,47.363,7.812
1568081175.380,29.785,29.297,37.109,61.035,10.742
1568081175.384,47.363,25.879,39.062,22.949,69.824
1568081175.388,64.941,25.879,38.086,-2.441,80.566
1568081175.392,46.387,25.879,39.551,36.133,86.426
1568081175.396,26.367,24.414,37.109,66.406,70.801
1568081175.400,43.457,24.414,32.715,30.273,-35.156
1568081175.403,61.035,24.902,27.832,-1.465,-0.977
1568081175.407,47.363,25.391,26.855,24.902,8.301
1568081175.411,28.809,27.832,27.344,56.152,-3.906
1568081175.415,39.062,30.762,28.809,45.898,85.449
1568081175.419,70.312,36.621,30.762,13.672,64.941
1568081175.423,66.406,36.133,32.715,8.301,2.441
1568081175.427,39.551,35.156,39.062,45.410,33.691
1568081175.431,42.969,34.668,39.062,53.223,51.758
1568081175.435,62.988,31.738,31.250,10.742,32.715
1568081175.439,62.988,29.785,24.414,-0.977,29.785
1568081175.442,41.504,28.809,32.227,43.945,2.930
1568081175.446,41.016,29.297,37.109,67.871,10.254
1568081175.450,62.012,27.832,31.738,28.809,8.301
1568081175.454,71.777,25.879,26.855,5.371,14.160
1568081175.458,56.641,28.809,26.367,37.109,19.531
1568081175.462,43.945,37.109,28.809,66.895,12.695
1568081175.466,57.129,40.039,24.414,46.875,43.457
1568081175.470,73.730,37.598,24.902,12.695,40.527
1568081175.474,63.477,40.039,34.668,22.461,35.645
1568081175.478,41.992,38.086,35.645,54.688,12.207
1568081175.482,42.480,31.738,33.203,43.945,10.742
1568081175.485,62.012,27.832,29.297,0.000,0.000
1568081175.489,63.965,28.320,25.879,1.953,-11.230
1568081175.493,44.434,32.227,33.691,47.363,6.348
1568081175.497,38.086,32.227,31.250,58.594,89.355
1568081175.501,60.059,32.227,25.391,20.020,88.379
1568081175.505,72.754,34.180,27.344,6.348,46.387
1568081175.509,59.570,38.574,33.203,49.805,-28.320
1568081175.513,42.969,35.645,33.203,73.242,-52.734
1568081175.517,50.781,27.832,28.809,30.273,10.254
1568081175.521,68.848,28.320,30.762,0.000,15.137
1568081175.525,57.129,33.691,33.691,31.738,-20.020
1568081175.528,42.969,34.668,35.645,65.918,-9.766
1568081175.532,53.711,32.715,37.109,44.922,52.246
1568081175.536,79.102,35.645,34.668,13.184,55.176
1568081175.540,74.707,40.039,31.738,28.809,51.758
1568081175.544,53.711,40.527,35.156,66.895,36.621
1568081175.548,56.641,38.574,36.621,62.988,72.754
1568081175.552,73.242,38.574,36.133,22.461,57.617
1568081175.556,77.148,34.668,37.109,20.508,7.324
1568081175.560,56.152,33.203,36.621,56.152,-14.648
1568081175.564,43.945,35.156,38.086,62.012,16.113
1568081175.567,66.406,42.480,39.551,21.484,0.000
1568081175.571,79.102,44.434,33.691,5.371,-15.625
1568081175.575,51.270,39.551,27.344,41.992,70.312
1568081175.579,30.762,41.016,32.715,65.918,96.191
1568081175.583,47.852,41.992,35.156,34.180,25.879
1568081175.587,62.988,40.039,33.203,10.742,-24.902
1568081175.591,46.875,37.109,35.645,33.203,6.348
1568081175.595,30.273,36.621,39.551,61.035,43.457
1568081175.599,47.363,41.016,42.969,48.340,32.227
1568081175.603,70.801,41.504,36.621,12.695,-16.602
1568081175.607,69.336,41.504,33.203,26.855,-15.625
1568081175.610,49.805,41.504,34.668,64.941,51.758
1568081175.614,49.316,41.504,36.621,60.547,34.180
1568081175.618,71.289,39.551,38.086,24.902,-40.527
1568081175.622,75.684,34.180,30.273,17.578,-27.344
1568081175.626,52.734,31.738,31.250,60.547,11.719
1568081175.630,37.109,36.621,41.504,78.613,41.016
1568081175.634,59.570,37.598,41.992,33.691,1.465
1568081175.638,75.684,35.645,38.086,10.742,-28.320
1568081175.642,52.734,34.180,37.109,41.016,20.508
1568081175.646,30.762,31.250,35.156,63.965,70.801
1568081175.650,39.062,31.738,34.180,33.691,-13.184
1568081175.653,61.523,36.621,35.645,4.395,-26.367
1568081175.657,46.875,31.738,35.156,24.414,3.906
1568081175.661,24.414,32.715,38.086,60.547,14.160
1568081175.665,41.992,41.016,43.457,52.734,82.520
1568081175.669,64.941,38.086,39.551,13.184,36.133
1568081175.673,64.941,38.574,31.738,21.484,-1.465
1568081175.677,41.504,39.551,31.738,58.105,62.012
1568081175.681,37.109,36.133,28.809,60.547,73.242
1568081175.685,63.965,32.715,29.297,20.996,59.082
1568081175.689,71.777,32.227,34.668,5.859,79.102
1568081175.692,46.875,34.668,35.645,48.340,92.773
1568081175.696,35.156,40.039,38.574,71.289,84.473
1568081175.700,63.965,43.945,38.086,32.227,29.297
1568081175.704,78.125,41.504,33.203,6.836,-2.930
1568081175.708,57.129,33.691,34.668,38.086,26.855
1568081175.712,41.504,30.762,32.227,65.918,26.367
1568081175.716,50.293,38.574,32.715,40.527,-12.207
1568081175.720,72.754,40.527,39.551,12.207,10.254
1568081175.724,61.523,31.250,37.598,28.809,10.254
1568081175.728,30.762,24.902,37.109,60.547,39.062
1568081175.732,33.691,27.832,36.621,49.805,74.219
1568081175.735,59.082,34.668,32.227,9.766,39.551
1568081175.739,54.688,32.227,36.133,7.812,-29.785
1568081175.743,34.180,28.320,41.016,49.316,-29.297
1568081175.747,31.738,32.715,37.598,57.617,35.645
1568081175.751,54.688,36.621,37.109,17.090,-17.578
1568081175.755,63.477,33.691,38.574,5.371,-47.852
1568081175.759,41.016,30.762,39.551,45.898,9.766
1568081175.763,32.227,31.250,42.480,67.383,77.148
1568081175.767,58.594,35.645,42.969,33.203,94.238
1568081175.771,75.195,33.691,44.922,11.230,64.453
1568081175.775,48.828,35.156,44.434,33.691,20.508
1568081175.778,28.809,39.551,41.992,59.570,32.715
1568081175.782,45.410,37.109,35.645,42.969,90.820
1568081175.786,60.059,31.250,27.344,4.395,87.891
1568081175.790,42.969,28.809,27.344,7.324,41.992
1568081175.794,25.391,24.414,32.227,42.969,39.551
1568081175.798,31.250,24.414,36.621,43.945,44.434
1568081175.802,57.617,35.645,39.062,8.301,-37.598
1568081175.806,60.547,35.645,39.062,10.254,-77.148
1568081175.810,38.086,34.180,40.039,50.781,21.973
1568081175.814,36.133,40.527,44.434,62.988,49.316
1568081175.817,59.082,41.504,43.457,27.344,39.551
1568081175.821,69.824,36.621,38.574,12.695,7.324
1568081175.825,49.316,36.621,36.133,48.340,-6.836
1568081175.829,31.738,34.668,33.691,69.336,15.625
1568081175.833,43.945,31.250,34.668,30.762,22.461
1568081175.837,67.383,33.203,38.086,4.883,13.184
1568081175.841,55.176,30.762,40.039,32.715,-30.762
1568081175.845,26.367,26.367,38.086,58.594,6.836
1568081175.849,33.691,30.273,28.809,38.574,13.672
1568081175.853,57.617,32.227,25.391,0.000,-8.789
1568081175.857,56.152,28.809,30.762,6.836,7.324
1568081175.860,40.527,31.250,35.645,46.387,53.223
1568081175.864,34.668,29.297,33.691,47.852,17.578
1568081175.868,47.852,29.297,35.156,6.348,-33.203
1568081175.872,56.152,30.762,42.969,4.883,-2.441
1568081175.876,37.598,28.320,42.480,49.805,25.879
1568081175.880,31.738,29.297,38.086,64.453,81.055
1568081175.884,54.688,34.180,37.598,23.438,26.855
1568081175.888,64.941,29.297,34.180,-1.465,25.879
1568081175.892,47.363,19.043,35.156,36.133,88.867
1568081175.896,31.738,19.043,38.574,62.012,79.102
1568081175.900,41.992,25.391,35.645,28.320,104.004
1568081175.903,61.035,31.738,32.715,-0.488,79.590
1568081175.907,52.734,32.715,34.668,21.973,47.363
1568081175.911,37.598,33.203,39.062,55.176,104.980
1568081175.915,41.504,33.691,37.109,42.969,137.207
1568081175.919,57.129,31.250,27.344,0.488,70.801
1568081175.923,53.223,30.273,26.367,4.883,67.871
1568081175.927,30.273,28.320,33.691,48.340,92.285
1568081175.931,23.438,26.367,32.227,54.199,41.016
1568081175.935,39.551,30.273,30.762,11.230,-6.836
1568081175.939,48.340,30.762,33.203,-2.441,-16.113
1568081175.942,31.250,33.691,39.062,42.969,3.418
1568081175.946,25.391,34.180,42.480,65.430,27.832
1568081175.950,42.480,30.273,36.133,19.043,43.945
1568081175.954,54.688,27.832,27.344,-10.742,30.273
1568081175.958,41.016,25.391,32.227,29.297,14.160
1568081175.962,25.391,22.461,33.691,58.105,42.480
1568081175.966,38.086,18.555,25.879,29.297,59.082
1568081175.970,59.570,20.996,25.879,0.000,2.930
1568081175.974,51.270,23.926,30.273,16.602,-7.324
1568081175.978,32.227,26.855,34.668,54.688,-14.648
1568081175.982,35.156,29.785,33.203,48.340,9.277
1568081175.985,49.316,29.297,29.297,-0.977,97.168
1568081175.989,47.852,30.273,27.344,0.488,63.965
1568081175.993,25.391,30.762,26.855,45.898,20.996
1568081175.997,19.043,25.391,30.273,52.734,40.039
1568081176.001,38.086,16.602,30.273,10.254,18.066
1568081176.005,45.898,12.207,28.809,-4.395,38.574
1568081176.009,33.203,15.625,30.273,40.527,74.219
1568081176.013,26.367,18.555,32.227,69.824,70.312
1568081176.017,29.785,24.902,27.832,16.602,52.246
1568081176.021,45.898,30.273,23.438,-19.043,-33.691
1568081176.025,40.527,29.297,23.926,20.996,-17.578
1568081176.028,14.160,30.762,20.020,47.852,49.805
1568081176.032,27.344,29.785,16.602,24.902,20.020
1568081176.036,47.363,28.809,15.137,-12.695,7.812
1568081176.040,41.504,30.762,20.020,4.883,-23.438
1568081176.044,32.227,30.762,26.855,55.664,9.766
1568081176.048,33.203,23.926,23.926,46.387,59.082
1568081176.052,50.293,25.391,20.508,5.371,101.562
1568081176.056,59.082,31.250,24.414,11.230,84.961
1568081176.060,42.969,25.879,31.250,57.617,32.715
1568081176.064,26.367,20.020,31.250,65.430,73.242
1568081176.067,43.945,21.484,28.809,19.043,20.020
1568081176.071,57.129,21.973,28.809,2.930,-37.109
1568081176.075,28.320,18.066,28.320,34.668,-39.062
1568081176.079,16.602,23.438,24.902,55.176,-7.812
1568081176.083,42.480,28.320,24.414,21.973,22.461
1568081176.087,62.012,24.902,24.902,-5.371,14.648
1568081176.091,53.711,27.832,27.344,25.391,25.391
1568081176.095,36.133,32.715,28.320,58.594,44.922
1568081176.099,37.109,29.297,28.320,38.086,31.250
1568081176.103,56.152,28.320,30.273,-1.465,38.086
1568081176.107,53.711,30.762,30.762,13.184,67.383
1568081176.110,29.297,29.297,28.320,53.223,70.312
1568081176.114,27.832,26.855,25.391,53.223,36.621
1568081176.118,48.340,29.297,24.414,11.719,-20.020
1568081176.122,54.199,29.785,20.996,0.488,-50.781
1568081176.126,32.227,27.832,28.320,42.480,-25.391
1568081176.130,17.090,27.832,39.062,53.223,1.465
1568081176.134,35.156,23.926,33.691,9.766,0.000
1568081176.138,51.270,19.043,24.414,-4.883,20.508
1568081176.142,38.086,20.020,20.996,29.297,29.297
1568081176.146,26.855,24.414,21.484,53.711,-31.738
1568081176.150,38.086,28.809,18.555,23.438,2.441
1568081176.153,55.664,29.785,20.996,-7.812,79.102
1568081176.157,45.410,26.367,27.832,17.578,119.629
1568081176.161,26.367,26.855,27.344,53.711,106.934
1568081176.165,36.621,31.738,29.785,41.992,64.453
1568081176.169,54.688,33.691,31.250,4.883,5.859
1568081176.173,55.664,35.156,28.320,8.789,-32.715
1568081176.177,34.668,29.785,20.996,42.480,-12.695
1568081176.181,23.926,22.461,15.625,42.969,57.129
1568081176.185,47.363,23.926,17.090,5.859,97.656
1568081176.189,51.758,25.391,22.949,-2.930,53.711
1568081176.192,30.762,24.902,30.273,41.016,-4.883
1568081176.196,28.809,27.344,30.273,60.059,6.348
1568081176.200,47.363,28.809,30.273,16.113,62.012
1568081176.204,58.594,29.785,33.691,-3.906,-0.977
1568081176.208,41.992,28.809,29.297,28.320,-20.996
1568081176.212,28.320,28.809,25.879,60.547,-28.320
1568081176.216,37.598,30.273,27.832,33.691,-18.555
1568081176.220,55.664,29.785,27.344,-3.418,55.664
1568081176.224,51.758,26.855,27.344,21.484,55.664
1568081176.228,29.297,28.320,29.297,61.035,43.457
1568081176.232,31.738,29.785,28.320,46.875,38.086
1568081176.235,55.176,29.297,29.297,2.441,14.160
1568081176.239,48.340,25.879,31.738,2.441,42.969
1568081176.243,30.273,23.926,34.180,45.898,85.938
1568081176.247,35.156,28.320,37.109,62.988,24.414
1568081176.251,56.152,37.109,34.668,24.902,-32.715
1568081176.255,61.035,39.062,30.273,10.254,-37.109
1568081176.259,36.133,34.180,28.809,46.387,64.453
1568081176.263,22.949,36.133,26.367,62.988,101.074
1568081176.267,36.133,34.668,20.508,20.020,-25.391
1568081176.271,51.758,28.320,25.391,-3.418,-19.043
1568081176.275,46.387,29.297,36.621,35.645,46.875
1568081176.278,26.367,30.273,35.156,60.059,49.805
1568081176.282,34.668,29.785,24.902,35.156,-29.297
1568081176.286,54.688,30.273,22.461,-2.441,-29.785
1568081176.290,49.805,34.180,30.762,11.719,11.230
1568081176.294,34.180,35.645,35.156,58.594,22.949
1568081176.298,33.691,32.227,29.785,50.781,72.266
1568081176.302,55.664,31.250,34.668,10.254,60.059
1568081176.306,60.547,30.273,39.551,16.113,20.020
1568081176.310,37.109,27.344,33.691,58.105,32.715
1568081176.314,33.691,33.203,29.297,66.895,29.297
1568081176.317,50.781,34.668,25.879,23.438,28.320
1568081176.321,58.594,31.250,30.762,5.859,-4.395
1568081176.325,41.992,33.691,39.062,45.898,-32.227
1568081176.329,29.297,34.180,39.062,72.754,20.996
1568081176.333,44.434,29.297,28.809,35.156,23.438
1568081176.337,59.570,27.832,26.367,0.488,1.465
1568081176.341,46.387,32.227,29.297,26.367,-12.207
1568081176.345,24.414,34.668,23.926,54.688,-5.859
1568081176.349,32.227,33.203,20.020,34.180,35.156
1568081176.353,57.617,36.133,24.414,3.418,66.406
1568081176.357,56.641,37.109,32.227,12.695,88.867
1568081176.360,35.645,33.691,33.691,53.223,67.871
1568081176.364,35.645,31.250,33.203,58.105,12.695
1568081176.368,54.199,33.203,32.227,19.043,26.855
1568081176.372,54.688,35.645,31.738,15.625,49.805
1568081176.376,31.738,36.621,38.086,51.270,-6.348
1568081176.380,28.809,41.504,40.039,64.941,10.742
1568081176.384,47.363,37.109,29.785,26.367,69.336
1568081176.388,58.105,28.809,22.461,0.977,33.203
1568081176.392,43.457,29.785,25.391,38.086,52.246
1568081176.396,24.414,30.273,32.227,65.430,24.414
1568081176.400,39.062,27.344,37.109,36.621,-38.086
1568081176.403,65.430,30.273,34.668,8.789,-0.977
1568081176.407,54.688,36.621,34.180,29.785,55.664
1568081176.411,34.180,41.016,33.691,63.965,59.570
1568081176.415,41.504,41.504,31.250,48.340,30.273
1568081176.419,61.035,41.504,27.832,8.301,10.742
1568081176.423,58.594,39.062,26.855,15.625,47.852
1568081176.427,33.691,34.180,29.785,53.711,43.945
1568081176.431,32.227,33.203,31.250,62.012,6.836
1568081176.435,49.316,28.320,27.832,18.555,-34.668
1568081176.439,54.688,24.902,29.785,5.859,11.230
1568081176.442,35.645,26.367,32.227,54.688,12.695
1568081176.446,24.902,26.855,29.785,72.754,2.441
1568081176.450,44.434,29.297,27.344,28.320,11.230
1568081176.454,58.105,31.250,29.297,2.441,-33.203
1568081176.458,43.945,34.180,33.203,34.180,-9.766
1568081176.462,26.367,37.109,31.738,60.059,54.688
1568081176.466,37.109,37.598,32.715,30.273,54.688
1568081176.470,54.688,29.785,29.785,-3.906,51.758
1568081176.474,44.922,25.391,25.879,18.066,48.340
1568081176.478,22.461,24.902,30.762,52.734,47.363
1568081176.482,24.414,24.414,33.203,41.016,57.617
1568081176.485,46.875,24.902,29.297,4.883,39.062
1568081176.489,45.410,23.438,26.367,8.301,20.508
1568081176.493,25.391,25.879,27.344,46.387,-2.930
1568081176.497,21.484,28.809,26.855,56.641,-27.344
1568081176.501,45.898,33.691,22.461,13.184,-20.020
1568081176.505,62.500,42.480,28.809,2.441,19.531
1568081176.509,43.457,44.922,36.621,48.340,23.926
1568081176.513,30.273,41.992,33.203,67.383,16.113
1568081176.517,47.852,33.203,28.809,26.855,44.922
1568081176.521,61.035,28.809,29.785,3.906,-4.883
1568081176.525,53.711,34.668,31.250,42.969,-28.320
1568081176.528,42.480,31.250,36.133,78.125,61.035
1568081176.532,32.715,26.367,34.668,36.621,97.168
1568081176.536,43.457,29.785,30.273,-9.766,33.203
1568081176.540,46.875,31.738,34.668,22.461,16.602
1568081176.544,18.066,32.227,38.086,60.059,33.691
1568081176.548,15.137,33.691,36.133,45.410,22.461
1568081176.552,51.270,36.133,37.109,8.301,65.430
1568081176.556,57.129,31.738,40.527,7.324,81.543
1568081176.560,28.320,28.320,33.691,47.363,44.434
1568081176.564,25.879,31.738,27.344,62.500,-6.836
1568081176.567,52.246,32.715,27.344,25.391,36.621
1568081176.571,58.105,31.738,20.508,6.836,83.984
1568081176.575,35.156,32.227,12.695,39.551,52.734
1568081176.579,26.855,33.203,19.531,61.523,69.336
1568081176.583,40.039,30.762,27.832,25.879,10.254
1568081176.587,54.688,30.273,29.297,-3.906,-16.602
1568081176.591,45.410,33.203,36.133,23.926,22.949
1568081176.595,23.438,27.832,41.992,53.711,54.688
1568081176.599,34.668,32.227,37.109,38.086,83.984
1568081176.603,57.129,36.133,28.809,1.953,85.449
1568081176.607,49.316,30.273,26.855,9.766,63.477
1568081176.610,28.809,28.320,27.832,51.758,51.758
1568081176.614,32.227,29.785,26.855,52.734,-4.883
1568081176.618,55.664,34.180,25.879,9.277,0.488
1568081176.622,58.594,34.180,28.809,6.836,29.785
1568081176.626,40.039,33.691,33.203,48.828,9.277
1568081176.630,34.668,32.715,36.621,61.035,-12.695
1568081176.634,50.781,29.297,28.809,20.020,49.805
1568081176.638,57.129,30.273,21.973,-1.953,78.613
1568081176.642,36.133,32.715,26.855,33.203,64.941
1568081176.646,20.996,33.691,29.785,55.176,80.566
1568081176.650,39.551,34.180,33.203,25.391,41.992
1568081176.653,58.594,34.668,32.227,-0.488,-4.395
1568081176.657,41.016,32.715,28.809,21.484,-27.832
1568081176.661,20.020,33.691,34.668,58.594,-19.531
1568081176.665,32.227,36.621,38.574,50.293,35.645
1568081176.669,55.664,34.180,37.109,9.277,2.930
1568081176.673,50.781,30.762,38.086,12.695,-17.578
1568081176.677,26.367,30.273,38.086,52.734,27.344
1568081176.681,30.762,30.762,32.227,58.105,21.973
1568081176.685,55.176,31.250,24.902,10.742,5.859
1568081176.689,59.570,33.691,24.902,-3.418,-48.828
1568081176.692,34.668,34.668,30.273,36.621,20.996
1568081176.696,21.973,35.156,29.785,54.199,43.945
1568081176.700,40.527,35.645,24.902,17.090,13.184
1568081176.704,54.688,36.133,29.785,-4.395,45.898
1568081176.708,39.551,36.133,36.621,29.297,11.230
1568081176.712,25.391,30.762,38.086,58.105,-20.020
1568081176.716,33.203,29.785,37.109,34.668,20.996
1568081176.720,47.363,28.809,35.156,4.883,19.043
1568081176.724,42.969,28.320,39.551,28.320,60.547
1568081176.728,26.855,38.086,37.598,62.988,63.965
1568081176.732,30.273,40.039,25.879,45.898,31.250
1568081176.735,56.152,38.574,25.879,7.812,18.066
1568081176.739,56.152,37.109,32.227,9.766,59.082
1568081176.743,27.344,34.180,36.621,44.922,105.957
1568081176.747,23.926,33.203,35.645,50.293,112.305
1568081176.751,44.434,30.762,32.715,13.184,89.355
1568081176.755,55.664,29.785,32.227,5.859,67.383
1568081176.759,34.180,26.855,32.227,42.480,50.781
1568081176.763,23.438,31.250,30.762,59.570,43.945
1568081176.767,37.598,38.574,24.902,21.973,23.438
1568081176.771,49.316,41.992,25.391,-1.465,-7.812
1568081176.775,33.691,42.480,28.320,30.273,42.480
1568081176.778,17.578,37.109,30.762,60.059,92.285
1568081176.782,34.180,31.738,30.762,35.156,118.164
1568081176.786,56.152,33.203,30.273,-2.441,80.078
1568081176.790,47.363,32.227,32.715,17.090,-20.508
1568081176.794,18.066,24.902,32.715,51.758,-65.430
1568081176.798,23.438,19.531,39.062,45.898,-19.531
1568081176.802,47.363,19.043,39.062,9.766,18.555
1568081176.806,49.316,21.973,29.785,7.812,26.855
1568081176.810,27.832,23.438,27.832,50.781,-14.648
1568081176.814,23.438,22.949,34.668,65.918,-60.059
1568081176.817,44.434,21.973,36.133,24.414,27.832
1568081176.821,56.641,27.832,31.250,5.859,76.172
1568081176.825,39.551,31.738,27.832,41.016,62.988
1568081176.829,26.367,32.227,24.902,64.453,77.637
1568081176.833,47.363,33.203,22.949,36.621,58.105
1568081176.837,65.918,31.738,24.902,7.812,36.621
1568081176.841,63.965,35.156,31.738,41.016,3.906
1568081176.845,50.293,39.551,36.133,79.102,-19.043
1568081176.849,56.641,41.504,36.621,57.129,2.930
1568081176.853,74.707,37.109,36.621,19.043,14.648
1568081176.857,63.477,27.832,34.180,28.809,5.371
1568081176.860,37.109,18.555,34.180,67.871,34.668
1568081176.864,33.203,15.137,32.227,66.406,19.043
1568081176.868,58.594,21.973,27.344,28.320,-43.945
1568081176.872,68.848,28.809,30.762,24.414,-30.273
1568081176.876,47.363,31.738,36.133,64.941,42.480
1568081176.880,38.086,31.250,36.621,82.520,55.664
1568081176.884,62.012,36.621,43.457,48.828,-20.508
1568081176.888,72.754,39.551,48.340,26.367,3.418
1568081176.892,50.293,35.156,40.527,53.223,2.930
1568081176.896,38.086,27.832,38.086,82.520,32.227
1568081176.900,52.246,24.414,39.062,47.852,86.914
1568081176.903,68.359,25.391,35.156,6.348,57.129
1568081176.907,56.641,25.391,27.344,26.367,7.324
1568081176.911,30.273,27.832,21.973,57.617,-19.531
1568081176.915,39.551,36.133,21.973,38.086,41.992
1568081176.919,65.430,39.551,28.320,2.441,49.805
1568081176.923,57.617,36.133,32.715,7.812,26.367
1568081176.927,37.598,38.574,29.297,46.875,41.504
1568081176.931,35.156,40.039,23.438,54.199,40.527
1568081176.935,43.457,31.738,17.578,9.766,48.828
1568081176.939,48.340,30.762,18.555,2.441,51.758
1568081176.942,29.297,32.715,25.391,44.922,56.152
1568081176.946,20.508,30.762,28.809,65.430,72.266
1568081176.950,47.363,32.227,31.250,33.691,45.898
1568081176.954,62.012,30.762,35.156,8.301,20.020
1568081176.958,50.781,31.738,39.062,44.922,5.371
1568081176.962,41.016,33.691,40.039,79.102,43.457
1568081176.966,49.316,31.738,36.621,50.781,40.039
1568081176.970,61.523,28.320,31.250,15.625,-21.973
1568081176.974,54.199,26.855,32.715,33.691,-33.203
1568081176.978,33.203,28.809,35.156,67.383,9.766
1568081176.982,29.297,28.809,30.762,53.223,26.855
1568081176.985,45.898,28.320,30.273,7.324,95.215
1568081176.989,43.457,31.738,31.738,9.277,80.078
1568081176.993,22.949,28.809,28.320,51.270,18.555
1568081176.997,28.809,28.320,30.762,62.012,35.645
1568081177.001,61.035,33.691,35.645,36.133,59.082
1568081177.005,59.570,30.273,38.086,16.602,24.414
1568081177.009,21.973,22.949,38.086,40.527,-30.273
1568081177.013,14.160,20.020,43.945,71.289,23.926
1568081177.017,35.156,23.438,44.922,40.527,66.406
1568081177.021,58.594,29.297,41.504,22.949,39.062
1568081177.025,48.340,37.598,43.945,54.199,-0.977
1568081177.028,25.391,40.039,42.480,75.195,49.805
1568081177.032,41.992,38.086,36.621,53.223,36.621
1568081177.036,65.430,35.156,36.133,10.742,33.691
1568081177.040,58.594,32.715,41.504,20.996,52.246
1568081177.044,38.574,29.297,40.527,64.941,-7.812
1568081177.048,39.551,32.715,34.180,63.477,28.320
1568081177.052,63.477,34.668,28.809,18.555,15.625
1568081177.056,52.246,26.367,28.320,5.859,-66.895
1568081177.060,18.555,26.367,33.691,44.922,-11.719
1568081177.064,14.648,26.855,31.250,57.129,23.438
1568081177.067,36.133,24.902,27.344,11.719,14.648
1568081177.071,47.363,24.902,32.227,-0.977,54.688
1568081177.075,28.320,25.879,39.062,43.945,82.031
1568081177.079,8.789,26.367,32.715,64.453,35.645
1568081177.083,24.902,23.926,29.297,30.762,-9.766
1568081177.087,45.410,20.508,29.297,1.465,-1.465
1568081177.091,31.738,20.996,29.297,25.391,5.859
1568081177.095,12.695,27.344,32.715,62.012,58.594
1568081177.099,23.926,33.203,27.832,43.945,74.219
1568081177.103,50.293,36.133,25.879,4.395,84.473
1568081177.107,53.223,38.574,31.250,16.113,82.520
1568081177.110,27.344,37.109,26.855,52.246,104.492
1568081177.114,20.996,35.156,21.484,44.922,56.641
1568081177.118,50.293,36.133,23.926,1.465,20.020
1568081177.122,56.152,33.691,27.832,-2.441,23.438
1568081177.126,32.715,32.715,32.715,40.527,-52.246
1568081177.130,27.832,40.039,29.297,57.129,-13.672
1568081177.134,48.340,39.551,27.832,17.090,58.105
1568081177.138,54.688,33.203,29.785,-6.836,36.133
1568081177.142,33.203,37.109,31.250,30.762,56.152
1568081177.146,20.020,35.156,30.273,59.082,50.293
1568081177.150,32.227,24.414,29.297,22.949,-1.465
1568081177.153,46.387,24.902,30.273,-5.859,16.113
1568081177.157,37.109,28.320,28.809,20.508,82.031
1568081177.161,20.020,30.273,25.391,55.664,74.219
1568081177.165,24.414,34.668,20.508,43.457,1.953
1568081177.169,49.316,39.551,24.902,8.789,-15.625
1568081177.173,51.758,40.039,32.715,17.578,-43.457
1568081177.177,25.879,34.180,35.645,56.152,-18.066
1568081177.181,16.113,25.391,34.668,57.129,6.836
1568081177.185,42.480,28.809,35.156,17.090,-13.672
1568081177.189,52.246,30.762,34.668,8.789,33.203
1568081177.192,25.391,29.297,28.320,46.875,43.945
1568081177.196,14.160,29.297,21.484,60.059,67.383
1568081177.200,34.668,29.785,19.531,18.555,48.828
1568081177.204,50.781,34.180,22.461,-4.395,-10.742
1568081177.208,35.645,33.203,31.250,33.203,26.367
1568081177.212,21.973,31.250,31.250,61.035,68.848
1568081177.216,34.180,32.715,23.926,32.227,66.895
1568081177.220,50.293,36.621,29.297,-1.465,28.320
1568081177.224,38.086,37.109,33.691,16.602,50.293
1568081177.228,17.578,35.645,28.320,51.758,85.449
1568081177.232,21.973,36.133,27.344,37.109,50.293
1568081177.235,41.992,33.691,24.414,-6.348,-9.277
1568081177.239,41.016,30.273,25.391,-1.465,12.695
1568081177.243,20.996,31.738,30.762,44.434,86.914
1568081177.247,21.484,32.227,31.250,57.129,72.754
1568081177.251,46.875,34.668,32.715,19.043,22.949
1568081177.255,56.152,35.645,32.715,5.371,17.578
1568081177.259,36.133,27.832,32.715,38.086,16.602
1568081177.263,26.855,24.902,39.062,58.594,-17.090
1568081177.267,41.504,31.250,33.691,23.926,-39.551
1568081177.271,56.641,34.180,18.066,2.930,62.500
1568081177.275,44.434,30.762,18.555,39.551,103.027
1568081177.278,31.250,28.809,28.809,66.406,36.133
1568081177.282,38.086,28.809,31.250,40.527,-19.043
1568081177.286,54.688,25.879,36.621,4.883,19.043
1568081177.290,51.758,28.809,35.156,17.090,8.301
1568081177.294,30.762,33.203,31.738,51.758,-7.324
1568081177.298,29.297,34.668,35.156,49.805,32.227
1568081177.302,45.410,34.668,34.180,10.742,40.527
1568081177.306,48.340,34.668,29.785,6.348,-6.348
1568081177.310,32.227,36.133,28.320,46.875,-3.906
1568081177.314,25.391,33.691,25.391,54.199,31.250
1568081177.317,35.645,30.273,22.949,11.719,-35.645
1568081177.321,50.293,29.785,28.320,-1.465,-42.969
1568081177.325,38.574,27.832,28.809,36.621,-28.320
1568081177.329,23.438,21.973,23.926,61.035,-18.066
1568081177.333,33.203,18.066,26.367,27.832,5.371
1568081177.337,52.246,20.020,33.691,1.465,29.785
1568081177.341,43.457,24.414,31.738,27.344,24.414
1568081177.345,20.508,30.273,28.320,59.082,20.020
1568081177.349,27.344,32.715,30.762,40.039,0.977
1568081177.353,47.363,25.391,25.879,0.000,-26.367
1568081177.357,41.016,19.043,24.902,11.230,-30.273
1568081177.360,21.973,19.043,30.762,50.293,-41.992
1568081177.364,28.320,22.949,33.691,53.711,-9.766
1568081177.368,54.199,26.367,31.738,17.090,53.223
1568081177.372,56.152,26.855,25.391,8.301,34.180
1568081177.376,33.203,26.855,21.484,46.875,48.828
1568081177.380,27.344,28.809,25.391,62.500,52.734
1568081177.384,47.363,32.715,27.344,20.996,0.488
1568081177.388,56.641,34.668,24.902,2.441,30.762
1568081177.392,37.598,32.715,26.855,38.574,26.367
1568081177.396,21.484,29.785,33.203,59.570,12.207
1568081177.400,34.180,29.785,31.738,23.926,5.859
1568081177.403,49.805,27.832,25.391,-8.301,12.207
1568081177.407,36.133,24.902,27.344,10.254,63.477
1568081177.411,21.484,29.785,31.738,46.387,30.273
1568081177.415,27.344,28.809,24.902,36.133,15.137
1568081177.419,48.340,26.855,24.414,-0.488,39.062
1568081177.423,43.945,34.668,31.738,3.906,28.809
1568081177.427,21.973,35.156,32.227,41.016,39.062
1568081177.431,21.484,29.785,25.879,44.434,32.715
1568081177.435,42.969,33.203,20.020,1.465,39.551
1568081177.439,54.688,33.203,18.555,-9.277,87.402
1568081177.442,33.203,31.250,30.273,33.203,30.273
1568081177.446,19.531,34.668,37.598,53.711,19.043
1568081177.450,37.109,33.203,29.297,16.113,67.871
1568081177.454,47.363,29.785,23.926,-6.836,61.523
1568081177.458,30.762,26.367,29.297,25.391,65.430
1568081177.462,15.625,25.391,30.273,53.711,61.035
1568081177.466,26.367,27.344,20.020,25.391,81.055
1568081177.470,46.875,28.809,19.531,-7.324,54.688
1568081177.474,34.180,31.738,23.438,11.230,-22.461
1568081177.478,15.625,28.809,19.043,48.828,-15.625
1568081177.482,21.973,24.902,19.043,43.945,51.758
1568081177.485,44.434,25.391,25.879,1.953,88.867
1568081177.489,47.852,29.297,33.203,4.395,64.941
1568081177.493,23.438,36.621,36.621,50.293,50.293
1568081177.497,19.043,38.574,34.180,62.988,61.035
1568081177.501,43.945,32.715,33.691,19.531,27.344
1568081177.505,56.641,28.320,35.156,5.859,4.395
1568081177.509,31.738,30.273,33.203,46.387,34.668
1568081177.513,18.555,31.738,31.738,68.359,61.523
1568081177.517,44.922,37.109,27.832,34.180,23.438
1568081177.521,61.523,36.621,21.973,5.859,22.949
1568081177.525,47.852,29.785,22.461,28.320,-22.949
1568081177.528,30.762,35.156,30.273,60.547,-17.578
1568081177.532,36.621,39.062,30.762,37.109,40.039
1568081177.536,57.617,34.668,26.367,-0.488,64.941
1568081177.540,49.805,31.738,28.320,18.555,46.875
1568081177.544,21.973,30.273,33.203,60.059,24.414
1568081177.548,28.320,31.738,31.738,54.199,25.879
1568081177.552,53.711,36.133,24.902,9.766,-15.137
1568081177.556,52.734,38.086,20.996,9.277,12.695
1568081177.560,29.297,35.645,21.484,48.340,-0.488
1568081177.564,20.996,35.645,25.879,53.711,48.828
1568081177.567,41.504,37.598,26.367,10.742,43.457
1568081177.571,49.805,34.668,27.344,-4.883,14.160
1568081177.575,26.855,31.738,31.738,32.715,60.059
1568081177.579,11.719,33.203,31.738,55.176,54.199
1568081177.583,22.461,28.320,28.809,19.043,22.949
1568081177.587,38.574,27.832,25.391,-8.789,11.230
1568081177.591,34.180,33.203,25.391,23.926,-28.320
1568081177.595,9.766,31.250,26.367,49.316,35.156
1568081177.599,14.648,34.180,32.715,31.738,109.863
1568081177.603,41.992,33.203,33.691,-1.953,81.055
1568081177.607,36.621,29.785,27.344,5.859,60.059
1568081177.610,17.090,28.320,24.414,47.852,20.508
1568081177.614,17.090,24.902,24.902,49.316,45.898
1568081177.618,41.504,26.367,27.344,10.254,45.898
1568081177.622,48.340,29.297,28.320,1.953,-17.090
1568081177.626,23.926,29.785,27.344,41.016,-18.066
1568081177.630,15.137,26.855,23.438,55.664,11.719
1568081177.634,37.598,29.785,23.438,14.648,-17.578
1568081177.638,53.223,33.203,22.461,-1.953,-17.578
1568081177.642,36.133,31.250,20.020,34.180,11.230
1568081177.646,19.531,29.785,22.949,55.176,7.812
1568081177.650,29.785,29.785,22.949,26.367,40.527
1568081177.653,49.316,27.832,24.902,0.488,40.039
1568081177.657,44.922,28.809,28.809,22.949,23.926
1568081177.661,28.320,28.320,22.949,52.246,65.430
1568081177.665,35.645,22.949,19.531,36.133,74.219
1568081177.669,55.176,29.785,24.902,2.441,68.848
1568081177.673,49.805,32.227,27.832,11.230,7.812
1568081177.677,27.344,28.320,28.809,49.316,-6.836
1568081177.681,25.391,30.273,29.785,54.688,73.242
1568081177.685,45.410,32.715,29.297,10.254,39.062
1568081177.689,54.199,37.109,26.855,-2.930,1.953
1568081177.692,29.297,35.156,26.855,36.621,56.641
1568081177.696,16.113,28.809,26.367,54.199,61.523
1568081177.700,38.574,26.367,19.043,18.066,-10.254
1568081177.704,56.641,27.344,20.020,-4.395,-4.883
1568081177.708,43.945,33.203,28.809,33.691,33.691
1568081177.712,29.297,31.250,32.227,66.406,61.523
1568081177.716,35.645,20.508,22.461,36.133,68.359
1568081177.720,53.711,24.902,14.160,0.488,29.785
1568081177.724,51.758,36.133,18.555,25.879,16.113
1568081177.728,36.621,41.016,25.879,66.895,15.137
1568081177.732,42.480,38.574,35.645,54.199,4.883
1568081177.735,62.500,33.691,35.156,7.812,41.992
1568081177.739,61.035,31.250,26.855,10.254,47.363
1568081177.743,32.715,27.344,22.949,52.246,68.848
1568081177.747,25.391,29.297,23.438,60.059,74.707
1568081177.751,46.875,30.762,24.902,20.508,32.715
1568081177.755,57.617,27.344,25.879,4.883,37.109
1568081177.759,37.598,26.855,30.762,43.945,4.395
1568081177.763,24.902,31.250,36.133,70.312,49.805
1568081177.767,40.527,31.250,33.691,35.645,105.469
1568081177.771,57.129,29.297,36.133,7.812,94.727
1568081177.775,46.387,29.297,44.922,41.016,51.758
1568081177.778,25.879,29.297,40.527,73.730,91.797
1568081177.782,35.156,31.738,31.738,49.805,83.008
1568081177.786,57.129,30.762,25.879,13.672,6.348
1568081177.790,52.734,27.832,27.344,28.320,13.672
1568081177.794,31.738,25.879,29.297,64.453,28.809
1568081177.798,36.621,31.738,23.438,62.500,64.453
1568081177.802,63.965,36.133,21.973,21.484,86.426
1568081177.806,66.895,35.645,28.809,19.043,48.828
1568081177.810,41.504,30.762,35.645,59.082,-17.578
1568081177.814,39.062,29.297,43.457,66.895,34.180
1568081177.817,54.688,36.133,42.969,20.508,73.730
1568081177.821,61.035,36.133,35.645,1.465,16.113
1568081177.825,44.922,30.273,28.320,41.504,36.621
1568081177.829,31.250,31.250,23.926,60.059,63.477
1568081177.833,42.969,32.715,25.391,25.391,62.012
1568081177.837,60.547,34.180,24.902,-9.766,83.984
1568081177.841,46.387,37.109,26.367,14.648,41.016
1568081177.845,19.531,30.762,25.391,50.293,-41.504
1568081177.849,29.785,25.391,24.414,33.691,-32.227
1568081177.853,46.875,27.344,28.809,-1.465,16.113
1568081177.857,42.969,31.738,32.227,11.719,83.496
1568081177.860,31.250,36.133,31.250,57.129,98.633
1568081177.864,34.180,32.715,25.391,57.617,-13.672
1568081177.868,55.176,27.832,23.438,19.531,-25.391
1568081177.872,60.059,27.832,25.879,13.672,32.715
1568081177.876,42.480,32.715,30.273,54.199,16.113
1568081177.880,40.527,38.086,31.738,73.730,-6.836
1568081177.884,57.617,41.016,28.809,31.250,-18.066
1568081177.888,69.824,40.527,29.297,5.859,-13.672
1568081177.892,48.340,32.715,25.879,39.062,22.949
1568081177.896,27.344,29.785,22.949,60.547,7.812
1568081177.900,42.480,32.715,20.996,28.809,15.625
1568081177.903,59.082,36.133,19.043,-0.488,34.180
1568081177.907,42.969,34.668,19.531,13.672,44.922
1568081177.911,21.973,31.250,24.902,48.340,57.129
1568081177.915,29.785,36.133,32.227,45.898,41.504
1568081177.919,50.293,37.598,34.180,10.254,30.762
1568081177.923,53.223,35.156,24.902,12.207,36.621
1568081177.927,37.109,32.715,22.461,54.688,22.461
1568081177.931,35.645,30.762,33.203,65.918,-12.695
1568081177.935,48.828,30.273,30.762,21.973,-11.230
1568081177.939,47.852,32.227,23.926,11.230,-9.277
1568081177.942,28.809,32.715,27.832,51.270,60.547
1568081177.946,20.996,32.715,34.180,71.289,74.707
1568081177.950,38.086,29.297,34.180,32.715,32.227
1568081177.954,49.316,23.438,33.691,0.488,28.320
1568081177.958,29.297,21.484,37.598,32.715,67.871
1568081177.962,14.160,22.461,39.062,68.848,60.059
1568081177.966,32.715,26.367,36.133,50.293,32.227
1568081177.970,56.152,33.691,28.320,13.184,2.441
1568081177.974,41.016,33.691,17.578,12.695,0.000
1568081177.978,20.020,34.668,17.090,42.480,35.156
1568081177.982,34.180,43.945,21.484,41.992,29.297
1568081177.985,56.152,41.016,22.949,4.395,39.062
1568081177.989,52.246,36.133,25.391,4.395,9.766
1568081177.993,31.250,36.133,28.320,43.945,-18.555
1568081177.997,23.438,34.180,30.273,53.223,21.973
1568081178.001,43.457,35.156,29.785,19.531,74.219
1568081178.005,58.105,37.598,29.297,6.348,42.480
1568081178.009,39.551,36.621,35.645,41.992,75.195
1568081178.013,23.438,29.785,41.016,62.012,84.473
1568081178.017,40.039,32.227,35.156,26.855,26.367
1568081178.021,56.641,38.574,22.461,1.953,4.883
1568081178.025,38.086,34.180,20.996,30.273,-1.465
1568081178.028,13.184,30.762,26.367,59.082,39.551
1568081178.032,20.508,33.203,28.809,38.574,46.875
1568081178.036,42.480,32.227,28.320,5.371,30.762
1568081178.040,31.738,31.250,23.438,18.066,-2.930
1568081178.044,5.859,32.715,25.879,49.805,17.578
1568081178.048,7.812,29.785,33.203,45.410,28.320
1568081178.052,40.527,30.762,37.109,9.766,-12.695
1568081178.056,47.852,32.227,41.504,10.254,-9.277
1568081178.060,23.438,33.691,33.691,52.246,-0.488
1568081178.064,19.043,32.227,23.438,63.477,-0.977
1568081178.067,40.527,29.297,25.879,22.461,35.645
1568081178.071,49.805,30.273,23.438,1.953,27.832
1568081178.075,29.785,29.297,21.973,35.645,4.395
1568081178.079,22.949,31.250,26.855,62.988,33.203
1568081178.083,48.340,35.645,31.738,34.668,15.137
1568081178.087,65.430,39.551,37.109,0.488,-17.578
1568081178.091,49.316,41.504,42.480,24.902,-6.348
1568081178.095,29.297,41.992,36.133,59.082,-4.395
1568081178.099,25.391,35.156,23.926,36.133,29.785
1568081178.103,39.062,33.691,21.973,-5.371,59.570
1568081178.107,38.086,36.133,22.461,0.977,111.816
1568081178.110,16.602,34.180,23.926,43.945,119.629
1568081178.114,21.484,36.133,20.508,47.363,50.293
1568081178.118,46.875,41.016,21.484,3.906,-1.465
1568081178.122,47.852,45.410,37.109,-2.441,-32.715
1568081178.126,22.949,43.457,41.992,37.598,-13.184
1568081178.130,14.648,37.109,33.691,51.270,75.195
1568081178.134,34.180,29.297,23.926,11.719,55.664
1568081178.138,45.410,24.902,20.020,-6.348,16.113
1568081178.142,26.367,27.344,32.227,33.691,30.762
1568081178.146,10.742,29.297,40.039,58.105,46.387
1568081178.150,26.367,34.668,35.156,22.949,57.617
1568081178.153,41.016,38.574,28.320,-2.930,28.809
1568081178.157,35.156,39.062,25.879,26.367,33.203
1568081178.161,21.484,33.203,34.668,59.570,41.504
1568081178.165,24.902,26.855,41.016,44.434,47.852
1568081178.169,48.340,29.785,35.156,7.324,87.402
1568081178.173,47.363,28.320,32.227,16.602,68.359
1568081178.177,23.926,25.391,28.809,55.664,38.574
1568081178.181,21.973,28.809,27.344,55.664,83.984
1568081178.185,42.969,35.156,31.738,14.160,22.461
1568081178.189,52.246,37.598,31.250,0.000,2.930
1568081178.192,33.203,32.715,34.180,41.504,35.156
1568081178.196,25.391,30.273,36.133,64.941,-4.395
1568081178.200,44.922,32.715,30.762,27.344,42.969
1568081178.204,54.199,34.668,29.297,-1.465,12.207
1568081178.208,42.969,33.691,33.691,29.785,14.160
1568081178.212,26.855,31.250,36.133,58.594,71.289
1568081178.216,29.297,32.227,31.250,31.738,38.574
1568081178.220,53.711,35.645,28.809,0.488,50.781
1568081178.224,49.805,34.668,28.809,17.090,27.832
1568081178.228,20.508,33.691,35.156,53.711,5.859
1568081178.232,21.973,34.180,36.621,49.805,28.809
1568081178.235,46.387,35.645,34.180,12.207,25.391
1568081178.239,46.387,39.062,36.133,11.230,1.953
1568081178.243,22.949,38.086,37.598,52.246,41.016
1568081178.247,20.996,36.621,36.621,61.523,36.133
1568081178.251,43.945,35.156,30.273,18.066,7.812
1568081178.255,49.805,25.879,29.297,1.465,1.465
1568081178.259,29.785,23.438,33.203,41.992,30.762
1568081178.263,21.484,29.297,35.645,70.312,38.574
1568081178.267,41.016,32.715,38.086,34.180,24.414
1568081178.271,60.547,34.668,35.156,9.277,-9.766
1568081178.275,53.223,39.062,39.062,50.293,-26.367
1568081178.278,25.879,41.992,45.410,70.801,62.500
1568081178.282,34.668,41.016,37.109,43.457,53.223
1568081178.286,63.477,34.668,30.273,14.160,-3.906
1568081178.290,42.480,26.367,33.691,19.043,-22.949
1568081178.294,23.926,26.855,38.574,62.012,42.969
1568081178.298,29.297,25.879,35.156,60.547,117.676
1568081178.302,35.156,26.855,25.879,7.324,86.914
1568081178.306,39.551,29.297,22.949,4.395,47.363
1568081178.310,18.555,25.879,29.297,43.457,22.949
1568081178.314,13.672,30.273,39.062,52.246,27.832
1568081178.317,40.039,38.574,38.086,13.672,2.930
1568081178.321,45.410,38.086,28.809,-4.883,21.973
1568081178.325,27.344,35.156,23.926,35.645,56.152
1568081178.329,21.973,33.691,24.414,63.965,6.836
1568081178.333,42.969,33.203,28.809,30.762,16.602
1568081178.337,55.176,31.250,29.297,-1.465,36.133
1568081178.341,38.574,27.344,31.250,27.344,44.434
1568081178.345,20.020,28.320,30.762,62.012,68.359
1568081178.349,28.809,34.668,28.809,44.434,13.184
1568081178.353,52.246,36.133,32.227,9.277,-23.438
1568081178.357,47.363,35.645,34.668,17.578,-20.508
1568081178.360,24.414,35.156,29.297,49.805,19.531
1568081178.364,28.809,33.203,18.066,48.340,65.430
1568081178.368,50.293,28.320,16.113,5.859,50.293
1568081178.372,48.340,23.926,20.020,-1.465,17.090
1568081178.376,29.297,29.785,25.391,39.551,-29.785
1568081178.380,22.949,36.133,30.273,57.129,1.465
1568081178.384,36.133,34.180,26.855,14.648,36.621
1568081178.388,46.875,34.180,31.738,-7.812,31.250
1568081178.392,35.645,40.039,36.621,31.250,69.824
1568081178.396,19.531,39.551,34.180,53.711,83.496
1568081178.400,32.227,36.133,32.227,23.438,-5.371
1568081178.403,50.293,30.273,33.203,-8.301,-0.488
1568081178.407,41.992,27.344,33.691,15.137,97.656
1568081178.411,28.809,29.785,28.809,60.547,82.520
1568081178.415,33.691,32.227,29.785,48.340,56.641
1568081178.419,53.711,29.785,34.668,8.789,23.438
1568081178.423,49.805,23.438,30.273,16.113,-0.977
1568081178.427,30.762,28.320,25.879,55.664,44.922
1568081178.431,34.180,35.645,27.832,63.477,79.590
1568081178.435,50.293,40.527,27.832,22.949,59.082
1568081178.439,58.594,45.898,29.297,15.137,16.602
1568081178.442,38.574,40.527,35.156,57.617,-6.836
1568081178.446,25.879,33.691,37.598,73.730,13.672
1568081178.450,46.387,36.621,40.039,36.621,31.250
1568081178.454,62.500,36.621,37.598,15.625,31.738
1568081178.458,46.875,33.691,33.691,51.758,44.434
1568081178.462,28.320,33.203,39.551,77.148,53.711
1568081178.466,39.062,33.691,42.480,45.410,31.738
1568081178.470,52.734,33.691,40.527,13.672,39.551
1568081178.474,42.969,36.621,39.551,31.738,66.895
1568081178.478,23.438,36.133,40.527,68.848,36.133
1568081178.482,19.531,28.320,33.691,54.199,32.227
1568081178.485,37.598,24.902,26.367,7.324,52.734
1568081178.489,40.527,29.785,29.297,10.742,21.973
1568081178.493,20.508,33.203,35.645,46.875,0.488
1568081178.497,13.184,30.762,37.598,52.734,2.930
1568081178.501,33.203,28.320,34.180,17.090,-26.367
1568081178.505,45.898,29.785,31.738,6.836,-27.832
1568081178.509,23.926,34.180,32.227,40.527,27.344
1568081178.513,12.695,33.203,30.762,59.082,94.727
1568081178.517,30.273,26.367,24.902,21.973,71.777
1568081178.521,47.363,21.484,23.926,-5.859,50.293
1568081178.525,34.180,25.391,30.273,25.391,67.383
1568081178.528,14.160,26.367,27.832,54.199,72.754
1568081178.532,25.879,27.832,22.949,33.203,117.188
1568081178.536,48.340,35.156,29.297,-1.465,86.426
1568081178.540,48.828,41.992,38.574,14.648,-21.484
1568081178.544,25.879,43.945,37.598,54.688,3.906
1568081178.548,18.066,34.180,31.738,45.410,1.953
1568081178.552,35.156,33.691,29.297,-1.465,-13.184
1568081178.556,33.203,29.297,28.320,-8.301,11.230
1568081178.560,15.137,32.227,35.156,36.133,48.340
1568081178.564,1.465,41.504,33.203,44.922,4.395
1568081178.567,12.207,32.715,32.715,1.465,-4.883
1568081178.571,14.648,32.715,31.738,-25.879,55.176
1568081178.575,-16.113,32.715,24.414,-5.371,61.035
1568081178.579,-31.250,38.086,27.344,16.113,36.621
1568081178.583,-15.137,50.293,30.273,-20.020,62.012
1568081178.587,2.930,55.664,29.297,-54.688,72.754
1568081178.591,-18.555,53.711,26.855,-36.621,-15.137
1568081178.595,-62.500,56.641,24.902,-23.926,-42.969
1568081178.599,-73.242,63.477,27.832,-52.734,0.000
1568081178.603,-62.500,62.500,32.227,-96.680,56.152
1568081178.607,-75.684,60.059,21.484,-101.074,53.223
1568081178.610,-100.586,63.965,16.602,-70.312,66.406
1568081178.614,-114.258,64.453,21.484,-87.891,75.684
1568081178.618,-108.887,66.406,26.855,-143.066,53.711
1568081178.622,-112.793,68.848,29.785,-149.902,59.570
1568081178.626,-132.324,66.406,33.691,-110.840,53.223
1568081178.630,-153.809,60.547,33.691,-113.281,-2.930
1568081178.634,-136.230,60.547,36.621,-152.832,-34.180
1568081178.638,-112.305,56.152,39.551,-164.062,-5.859
1568081178.642,-129.395,40.527,28.809,-135.254,-2.930
1568081178.646,-133.301,36.133,24.414,-96.191,-24.414
1568081178.650,-107.910,39.551,34.180,-110.352,31.738
1568081178.653,-89.844,41.016,39.551,-147.461,41.016
1568081178.657,-100.586,39.062,41.504,-125.000,6.836
1568081178.661,-122.559,31.250,46.875,-92.773,-3.906
1568081178.665,-108.887,27.344,44.922,-100.098,-37.109
1568081178.669,-68.848,28.320,40.039,-114.746,8.789
1568081178.673,-62.500,27.344,35.156,-103.516,21.973
1568081178.677,-80.078,26.367,34.180,-62.012,56.641
1568081178.681,-78.125,23.438,39.062,-52.734,62.500
1568081178.685,-45.898,18.066,40.527,-79.590,66.406
1568081178.689,-20.508,15.137,37.109,-62.012,72.266
1568081178.692,-26.855,18.066,41.504,-6.348,59.570
1568081178.696,-29.297,19.043,43.945,12.207,39.062
1568081178.700,-6.836,16.602,34.668,-20.508,30.273
1568081178.704,16.602,14.160,30.762,-32.227,33.691
1568081178.708,6.836,11.719,33.691,0.977,-6.348
1568081178.712,-5.859,9.277,31.738,36.133,55.176
1568081178.716,25.879,13.672,29.785,32.715,37.109
1568081178.720,54.688,18.066,28.320,5.859,-0.488
1568081178.724,43.457,20.020,21.973,22.461,25.879
1568081178.728,30.273,18.066,20.996,67.383,14.160
1568081178.732,39.062,15.137,19.043,62.500,37.598
1568081178.735,63.477,18.555,16.602,23.438,26.367
1568081178.739,73.730,19.531,18.066,35.156,18.555
1568081178.743,62.012,23.926,20.020,83.008,15.625
1568081178.747,54.199,21.973,17.090,90.332,60.059
1568081178.751,72.266,20.020,19.531,48.828,32.227
1568081178.755,77.148,24.414,23.438,30.273,-10.742
1568081178.759,56.641,23.926,20.996,69.824,25.879
1568081178.763,55.176,24.414,12.695,102.051,43.457
1568081178.767,67.383,25.879,12.207,63.477,48.828
1568081178.771,84.961,28.320,15.625,40.039,5.371
1568081178.775,82.520,26.367,13.184,77.148,-10.742
1568081178.778,67.383,23.438,13.184,110.352,22.461
1568081178.782,90.332,27.832,14.648,95.215,47.363
1568081178.786,114.258,30.273,16.602,63.965,7.812
1568081178.790,104.492,26.367,19.043,71.777,-36.621
1568081178.794,88.379,20.020,20.020,112.793,9.766
1568081178.798,90.820,22.949,19.531,115.234,39.062
1568081178.802,110.840,26.855,20.508,69.824,9.766
1568081178.806,114.258,29.297,21.973,65.430,21.484
1568081178.810,93.750,29.297,24.902,105.957,13.672
1568081178.814,85.938,28.320,23.926,117.676,21.973
1568081178.817,105.469,34.180,15.625,75.195,32.715
1568081178.821,120.605,32.715,13.184,57.617,16.602
1568081178.825,102.539,27.344,18.066,92.285,5.859
1568081178.829,83.496,25.391,24.902,119.629,-10.742
1568081178.833,96.680,29.785,29.297,92.773,26.855
1568081178.837,111.816,32.227,24.902,62.012,41.016
1568081178.841,102.051,30.762,21.484,84.961,26.367
1568081178.845,82.520,32.227,26.367,118.652,42.480
1568081178.849,90.820,31.250,30.273,104.980,21.484
1568081178.853,112.305,24.902,29.297,61.035,55.664
1568081178.857,107.422,20.996,27.344,63.965,108.398
1568081178.860,87.891,23.438,31.738,110.840,66.406
1568081178.864,85.449,21.973,33.691,111.328,-18.555
1568081178.868,96.680,20.020,28.809,63.965,-18.066
1568081178.872,96.680,25.391,31.738,57.617,32.227
1568081178.876,74.707,23.926,34.180,92.773,55.176
1568081178.880,60.059,21.973,34.180,104.980,63.477
1568081178.884,77.637,21.973,36.621,67.871,61.523
1568081178.888,87.891,20.996,35.645,44.922,12.207
1568081178.892,72.266,22.949,34.668,81.055,-9.766
1568081178.896,54.199,24.902,37.598,109.375,8.789
1568081178.900,60.059,24.414,38.574,75.195,20.996
1568081178.903,83.984,21.973,36.133,47.363,26.855
1568081178.907,79.590,22.949,33.691,77.148,21.484
1568081178.911,57.129,22.949,33.691,112.793,-4.883
1568081178.915,56.152,21.973,28.809,95.703,-60.547
1568081178.919,74.707,23.926,22.949,53.223,-6.348
1568081178.923,84.473,23.438,24.902,62.988,72.754
1568081178.927,73.730,25.879,33.691,107.910,77.637
1568081178.931,51.758,28.809,38.574,92.773,53.223
1568081178.935,69.824,27.832,36.133,43.945,74.707
1568081178.939,83.984,20.996,37.598,44.434,60.059
1568081178.942,45.410,15.625,40.527,70.312,-1.953
1568081178.946,36.621,19.043,36.133,90.332,15.625
1568081178.950,66.895,20.508,36.621,63.965,34.668
1568081178.954,79.102,21.484,39.062,36.133,31.250
1568081178.958,66.895,26.855,38.086,72.754,27.344
1568081178.962,54.688,29.297,37.109,100.586,11.719
1568081178.966,59.082,31.250,34.180,68.359,-7.324
1568081178.970,71.777,28.809,35.645,34.180,-22.949
1568081178.974,61.523,22.949,38.086,50.293,-52.734
1568081178.978,40.527,21.973,36.621,83.984,6.836
1568081178.982,41.016,20.996,33.203,76.172,64.941
1568081178.985,66.895,24.902,27.832,36.133,67.383
1568081178.989,82.031,28.320,32.715,41.992,10.742
1568081178.993,61.523,28.320,36.621,84.473,-28.320
1568081178.997,55.176,33.203,36.133,95.215,14.160
1568081179.001,82.031,35.645,32.715,62.012,62.988
1568081179.005,89.844,32.715,35.156,48.828,67.871
1568081179.009,70.312,31.738,41.992,84.961,82.520
1568081179.013,54.199,30.273,36.133,98.633,101.562
1568081179.017,62.988,26.855,27.344,55.176,30.273
1568081179.021,79.590,29.785,24.414,27.344,80.566
1568081179.025,64.941,29.297,30.762,59.082,99.609
1568081179.028,44.434,27.344,36.621,88.867,33.203
1568081179.032,52.246,30.273,35.156,63.965,-20.996
1568081179.036,66.895,26.367,33.203,20.508,-41.504
1568081179.040,62.012,24.902,34.668,32.227,-34.180
1568081179.044,42.480,30.762,39.551,73.730,2.441
1568081179.048,43.457,36.621,38.574,72.266,65.430
1568081179.052,61.523,31.738,31.250,25.391,32.715
1568081179.056,56.641,23.438,29.297,16.113,26.367
1568081179.060,28.809,20.508,35.156,54.688,34.668
1568081179.064,18.066,23.438,35.645,65.918,43.945
1568081179.067,37.109,28.809,31.738,26.367,62.500
1568081179.071,49.805,30.273,26.855,10.254,-0.488
1568081179.075,35.645,31.738,22.949,47.363,-0.977
1568081179.079,24.902,26.855,26.855,67.871,8.789
1568081179.083,46.387,32.715,35.156,44.922,22.949
1568081179.087,64.941,38.086,35.645,19.043,70.312
1568081179.091,56.152,27.832,33.691,41.992,48.828
1568081179.095,42.969,27.832,30.273,78.125,65.430
1568081179.099,47.852,31.738,30.762,56.641,53.223
1568081179.103,65.430,30.273,30.273,11.230,36.133
1568081179.107,65.430,31.250,26.855,17.090,7.324
1568081179.110,46.387,34.180,27.832,58.594,-69.824
1568081179.114,45.410,32.227,29.785,62.500,-27.832
1568081179.118,66.406,33.691,29.297,24.414,83.496
1568081179.122,72.754,34.668,32.715,15.137,75.195
1568081179.126,54.199,36.621,36.621,54.199,44.434
1568081179.130,35.156,34.668,33.691,66.895,57.129
1568081179.134,46.387,31.738,30.762,24.902,-34.668
1568081179.138,62.988,33.203,34.180,7.812,-27.344
1568081179.142,41.504,29.785,34.180,40.039,79.590
1568081179.146,18.555,27.832,31.250,62.988,49.805
1568081179.150,29.297,26.855,31.738,37.109,68.359
1568081179.153,50.293,24.902,28.320,6.836,60.547
1568081179.157,46.387,24.414,26.367,29.785,42.969
1568081179.161,27.832,25.391,24.414,66.895,74.219
1568081179.165,32.227,24.902,25.879,57.129,50.781
1568081179.169,53.711,26.367,29.785,17.578,67.383
1568081179.173,53.223,29.297,33.203,19.531,67.871
1568081179.177,36.133,27.832,39.551,60.547,17.090
1568081179.181,33.691,22.949,36.621,63.965,26.855
1568081179.185,54.199,23.926,35.645,21.484,4.883
1568081179.189,65.918,29.785,35.156,10.742,-18.066
1568081179.192,39.551,31.738,28.809,44.434,12.695
1568081179.196,20.020,32.715,27.832,58.594,7.324
1568081179.200,35.156,35.156,23.438,14.160,26.855
1568081179.204,53.223,37.598,22.461,-7.812,52.246
1568081179.208,43.457,35.156,33.203,36.133,20.996
1568081179.212,30.273,35.645,36.621,70.312,4.883
1568081179.216,42.480,34.668,30.273,47.363,9.766
1568081179.220,57.617,30.273,27.344,19.043,-3.906
1568081179.224,50.293,30.273,34.180,41.504,19.531
1568081179.228,30.762,29.785,41.504,82.031,22.461
1568081179.232,26.855,28.320,44.434,70.312,20.508
1568081179.235,50.781,28.320,44.434,26.367,23.926
1568081179.239,63.965,28.320,36.621,30.273,28.320
1568081179.243,42.480,28.809,31.250,72.754,59.570
1568081179.247,29.297,29.785,35.156,76.172,41.992
1568081179.251,44.434,28.809,34.668,26.367,-5.371
1568081179.255,50.781,27.832,35.156,8.789,48.340
1568081179.259,33.203,30.273,40.527,46.875,55.664
1568081179.263,24.414,29.785,40.039,67.871,44.434
1568081179.267,41.504,23.438,35.645,26.855,55.664
1568081179.271,52.246,19.531,31.250,-3.906,-10.742
1568081179.275,33.691,24.902,27.832,23.926,12.695
1568081179.278,21.484,27.344,32.227,52.246,59.570
1568081179.282,41.992,30.762,33.691,38.574,58.105
1568081179.286,59.082,32.227,25.391,5.859,3.906
1568081179.290,50.781,34.180,25.879,19.531,-42.480
1568081179.294,36.621,37.109,26.367,62.012,-26.855
1568081179.298,37.109,35.156,24.414,61.035,-6.348
1568081179.302,59.082,32.715,29.785,20.508,54.688
1568081179.306,62.012,27.832,31.738,13.672,20.508
1568081179.310,37.598,26.367,30.273,52.734,39.551
1568081179.314,31.738,25.879,30.273,71.777,84.961
1568081179.317,48.828,27.344,29.297,30.762,89.844
1568081179.321,52.246,30.273,33.203,3.906,7.324
1568081179.325,26.367,29.785,37.598,36.621,-10.742
1568081179.329,11.230,29.297,33.691,60.059,39.062
1568081179.333,24.414,28.809,27.344,23.926,64.941
1568081179.337,35.645,30.273,25.879,-6.836,26.367
1568081179.341,26.855,35.156,26.855,21.484,27.832
1568081179.345,14.648,37.109,25.391,53.711,78.125
1568081179.349,15.137,31.738,19.043,31.250,95.703
1568081179.353,33.203,25.391,20.508,-4.395,65.430
1568081179.357,36.621,25.391,27.832,6.836,27.832
1568081179.360,12.695,25.391,30.273,43.945,16.602
1568081179.364,10.742,22.949,31.738,47.852,-37.598
1568081179.368,33.691,21.484,30.273,7.324,-62.988
1568081179.372,39.062,19.043,30.273,-1.953,-27.344
1568081179.376,20.508,21.484,33.691,41.016,41.992
1568081179.380,12.207,29.785,34.180,58.594,10.742
1568081179.384,29.785,34.180,29.785,19.043,-27.344
1568081179.388,47.363,37.109,26.367,-0.977,20.996
1568081179.392,34.180,35.156,29.785,34.668,29.297
1568081179.396,18.066,33.203,27.344,57.617,-1.465
1568081179.400,33.203,36.621,17.578,24.414,-25.391
1568081179.403,60.059,38.086,18.066,-5.371,34.668
1568081179.407,49.316,32.715,22.949,17.578,99.121
1568081179.411,19.531,31.738,23.926,52.734,84.961
1568081179.415,25.391,35.156,26.855,48.340,48.340
1568081179.419,46.875,36.133,27.832,12.207,30.273
1568081179.423,41.992,30.762,31.250,14.160,17.578
1568081179.427,20.996,28.320,36.133,53.223,-13.184
1568081179.431,15.137,28.809,31.738,54.199,-20.508
1568081179.435,36.133,29.785,29.297,11.230,11.719
1568081179.439,44.434,31.250,30.273,-5.371,19.043
1568081179.442,20.020,30.273,27.832,32.227,7.812
1568081179.446,6.836,31.250,24.414,57.617,5.371
1568081179.450,22.461,32.715,21.484,20.020,18.066
1568081179.454,37.598,29.785,20.508,-7.324,5.371
1568081179.458,25.391,27.344,20.996,27.344,28.320
1568081179.462,8.789,31.738,23.438,57.617,48.340
1568081179.466,17.578,28.809,28.320,29.297,45.410
1568081179.470,38.574,23.926,29.297,-4.883,-23.438
1568081179.474,37.598,24.902,26.367,14.160,-19.043
1568081179.478,20.508,25.879,27.832,55.176,76.172
1568081179.482,18.555,27.344,31.250,49.805,87.402
1568081179.485,37.109,26.367,28.320,11.719,18.066
1568081179.489,40.039,20.996,25.391,14.160,-44.434
1568081179.493,22.461,19.531,31.250,52.246,-71.777
1568081179.497,14.160,20.508,34.668,60.059,-27.344
1568081179.501,33.203,29.297,32.715,18.555,0.488
1568081179.505,47.363,39.551,29.785,0.977,43.457
1568081179.509,27.832,39.062,25.879,34.668,25.391
1568081179.513,16.602,37.109,22.461,51.758,28.320
1568081179.517,39.062,38.086,20.508,14.648,21.484
1568081179.521,55.176,33.203,15.137,-12.695,-10.742
1568081179.525,38.086,29.297,15.137,15.137,8.789
1568081179.528,21.484,31.250,21.973,49.805,-4.883
1568081179.532,27.832,33.203,21.973,29.297,65.430
1568081179.536,47.852,31.738,20.020,-3.418,20.508
1568081179.540,43.945,29.297,22.461,13.672,-31.250
1568081179.544,20.508,31.738,27.344,51.270,27.344
1568081179.548,22.949,33.691,25.391,48.340,-0.488
1568081179.552,43.457,29.785,22.461,7.324,44.434
1568081179.556,43.457,25.391,21.484,0.488,103.027
1568081179.560,21.484,23.926,21.973,40.527,56.152
1568081179.564,20.508,28.809,27.344,60.059,11.230
1568081179.567,39.551,33.691,30.762,21.973,45.898
1568081179.571,44.922,33.203,28.320,-1.953,77.637
1568081179.575,31.250,31.250,27.832,32.715,75.684
1568081179.579,18.555,30.762,27.344,61.523,56.152
1568081179.583,28.809,30.762,22.949,28.320,16.602
1568081179.587,48.828,33.691,22.461,-3.906,39.062
1568081179.591,41.504,34.668,28.320,20.996,57.129
1568081179.595,20.996,26.367,26.855,52.246,46.387
1568081179.599,22.461,20.508,21.484,36.133,24.902
1568081179.603,45.898,24.414,23.438,1.953,41.992
1568081179.607,51.758,32.227,22.461,13.672,83.008
1568081179.610,34.668,34.180,21.973,53.223,39.062
1568081179.614,36.621,31.738,22.949,57.617,45.898
1568081179.618,60.547,28.809,22.949,18.555,65.430
1568081179.622,61.035,32.715,27.344,6.836,21.484
1568081179.626,31.250,35.156,32.227,43.945,35.645
1568081179.630,18.066,28.809,35.645,60.547,14.160
1568081179.634,35.156,28.320,37.598,20.020,2.441
1568081179.638,51.270,27.832,33.691,-0.488,27.832
1568081179.642,36.621,25.879,28.320,34.668,30.273
1568081179.646,18.066,26.855,29.297,59.082,12.207
1568081179.650,29.297,28.809,25.879,28.320,59.082
1568081179.653,46.875,28.320,18.066,0.000,93.262
1568081179.657,40.527,26.855,20.020,28.320,-5.371
1568081179.661,25.391,30.273,28.320,65.430,-50.293
1568081179.665,28.320,36.133,32.715,53.223,23.438
1568081179.669,52.246,32.227,30.762,16.602,24.414
1568081179.673,60.547,28.320,31.738,22.461,-13.184
1568081179.677,35.645,30.762,37.109,60.547,50.293
1568081179.681,32.227,31.738,34.668,65.918,86.914
1568081179.685,51.758,32.715,26.367,20.508,13.672
1568081179.689,54.199,30.273,25.879,8.301,-5.859
1568081179.692,35.645,29.297,30.762,49.316,20.996
1568081179.696,21.484,28.809,34.180,71.777,17.578
1568081179.700,33.203,31.250,31.738,35.156,53.711
1568081179.704,47.363,34.180,29.297,9.766,74.707
1568081179.708,34.668,28.320,34.180,38.574,71.289
1568081179.712,16.602,29.785,41.992,64.453,64.941
1568081179.716,25.879,31.250,39.551,40.527,25.391
1568081179.720,45.898,25.391,30.273,3.906,-0.488
1568081179.724,40.527,27.344,26.367,23.926,47.363
1568081179.728,23.438,32.715,32.715,63.477,61.035
1568081179.732,24.414,30.762,35.156,53.711,41.504
1568081179.735,41.992,27.832,28.320,10.742,29.785
1568081179.739,44.434,28.809,25.391,5.859,13.672
1568081179.743,22.461,30.273,24.902,44.434,27.832
1568081179.747,15.137,30.273,22.949,53.223,44.922
1568081179.751,32.715,31.738,24.902,8.301,64.941
1568081179.755,38.574,27.344,27.832,-9.277,86.914
1568081179.759,19.043,23.438,31.250,34.180,28.320
1568081179.763,5.371,28.320,32.715,58.105,0.000
1568081179.767,23.438,27.832,33.203,21.973,20.020
1568081179.771,43.457,28.809,29.785,-4.395,52.734
1568081179.775,30.273,29.297,27.832,23.438,16.602
1568081179.778,14.160,29.297,29.297,60.547,-36.133
1568081179.782,26.367,33.691,29.785,44.434,6.836
1568081179.786,43.945,32.715,29.297,2.441,-4.883
1568081179.790,35.156,28.809,27.344,16.113,-14.160
1568081179.794,17.578,31.250,26.367,56.152,24.414
1568081179.798,18.555,34.180,28.320,51.758,31.738
1568081179.802,36.133,30.762,33.691,6.348,13.672
1568081179.806,39.551,26.367,36.133,0.488,-4.883
1568081179.810,19.531,25.879,33.691,46.387,32.715
1568081179.814,14.648,28.320,30.273,60.059,36.133
1568081179.817,32.715,28.809,24.414,14.160,13.184
1568081179.821,38.086,29.297,23.926,-2.930,41.992
1568081179.825,24.414,32.715,28.809,37.109,43.945
1568081179.829,19.531,35.645,29.785,62.012,20.020
1568081179.833,31.250,33.691,25.879,32.227,-3.906
1568081179.837,46.875,28.320,25.391,1.465,-0.488
1568081179.841,40.039,27.344,31.250,26.855,68.848
1568081179.845,21.484,28.320,33.691,62.988,62.500
1568081179.849,23.926,26.855,30.762,43.945,1.953
1568081179.853,40.039,25.391,26.367,1.465,4.883
1568081179.857,37.598,24.902,25.879,10.254,-5.859
1568081179.860,22.461,27.344,26.855,52.246,48.340
1568081179.864,21.484,28.809,26.855,54.688,82.031
1568081179.868,39.551,32.715,26.855,11.230,30.762
1568081179.872,49.805,33.203,25.879,2.930,39.062
1568081179.876,29.297,28.320,32.227,44.922,14.160
1568081179.880,17.578,24.414,39.062,57.617,-27.344
1568081179.884,34.180,20.996,39.551,15.137,-2.930
1568081179.888,45.410,23.926,35.156,-4.395,0.977
1568081179.892,34.180,29.297,30.273,33.691,50.781
1568081179.896,20.508,29.297,33.691,62.500,54.199
1568081179.900,24.902,29.297,37.598,37.109,-6.836
1568081179.903,46.387,35.156,33.691,2.930,-0.488
1568081179.907,43.945,34.668,32.715,21.973,26.367
1568081179.911,21.484,31.250,33.691,63.477,20.508
1568081179.915,19.531,30.273,34.668,53.711,-35.645
1568081179.919,38.574,27.832,36.133,16.113,-23.926
1568081179.923,42.480,29.297,30.273,17.578,37.598
1568081179.927,21.484,32.227,23.438,54.688,31.738
1568081179.931,19.043,34.180,23.438,60.059,20.508
1568081179.935,39.062,30.273,25.391,13.672,57.617
1568081179.939,44.434,27.832,29.785,-0.977,72.266
1568081179.942,24.902,32.715,35.645,42.969,16.602
1568081179.946,15.625,33.691,39.062,57.617,41.016
1568081179.950,33.203,31.250,39.551,17.090,62.988
1568081179.954,54.688,29.785,35.645,0.488,35.156
1568081179.958,43.457,28.809,29.297,34.180,93.262
1568081179.962,20.020,27.344,26.855,58.594,12.695
1568081179.966,26.367,26.855,27.832,34.668,-43.457
1568081179.970,39.062,23.438,27.832,-0.488,17.578
1568081179.974,35.156,29.297,24.414,16.602,25.391
1568081179.978,29.785,36.133,25.879,58.105,19.043
1568081179.982,32.227,35.156,30.762,53.711,12.207
1568081179.985,49.316,40.527,26.855,17.578,43.945
1568081179.989,52.246,41.016,19.043,16.602,62.500
1568081179.993,30.273,39.062,21.484,53.223,95.703
1568081179.997,23.438,37.109,31.738,66.895,112.793
1568081180.001,41.504,34.668,34.668,25.879,23.926
1568081180.005,49.316,37.598,36.621,3.906,-35.156
1568081180.009,35.156,36.133,38.086,45.898,-35.645
1568081180.013,30.762,31.250,41.016,77.148,-14.648
1568081180.017,40.527,31.738,45.898,36.621,38.574
1568081180.021,48.828,37.109,37.109,-1.465,48.828
1568081180.025,29.785,38.574,28.320,24.414,19.531
1568081180.028,12.207,34.668,29.297,59.082,-0.488
1568081180.032,21.973,38.086,26.367,38.574,17.090
1568081180.036,35.156,38.574,20.508,-5.371,19.531
1568081180.040,28.320,35.156,18.555,2.441,60.547
1568081180.044,13.672,41.016,19.531,45.410,86.914
1568081180.048,16.113,44.434,30.273,47.852,73.242
1568081180.052,38.086,42.480,38.086,7.324,25.391
1568081180.056,48.340,40.527,39.062,5.371,3.906
1568081180.060,19.531,32.715,40.039,41.504,43.945
1568081180.064,6.836,24.902,37.109,45.898,65.430
1568081180.067,24.414,21.484,35.645,4.395,1.465
1568081180.071,28.320,24.414,34.180,-14.160,-6.348
1568081180.075,11.719,30.762,34.668,25.391,17.090
1568081180.079,1.465,34.180,36.133,55.664,37.109
1568081180.083,21.484,35.156,35.645,28.320,36.621
1568081180.087,41.016,34.668,33.691,-2.441,3.418
1568081180.091,32.227,33.203,30.273,23.438,8.301
1568081180.095,21.484,34.180,31.738,63.477,33.203
1568081180.099,33.203,33.691,34.180,50.293,51.270
1568081180.103,58.105,29.297,31.250,7.812,-5.371
1568081180.107,53.223,30.273,27.832,8.789,-3.418
1568081180.110,21.973,32.715,27.832,46.387,49.316
1568081180.114,13.184,32.715,29.785,47.363,55.176
1568081180.118,35.645,31.250,34.668,6.836,33.203
1568081180.122,41.992,29.785,37.598,0.488,14.648
1568081180.126,15.625,25.391,33.691,37.109,-5.859
1568081180.130,7.324,23.926,29.297,54.199,-11.719
1568081180.134,30.273,27.344,29.297,16.113,-7.324
1568081180.138,43.457,28.809,29.297,-10.254,13.672
1568081180.142,31.738,25.391,28.809,30.762,72.266
1568081180.146,19.531,25.391,26.367,64.453,49.805
1568081180.150,28.809,29.297,22.949,35.156,-13.672
1568081180.153,42.969,33.203,30.273,-0.977,-11.719
1568081180.157,38.086,35.645,44.434,18.066,60.059
1568081180.161,15.137,30.273,45.410,55.664,89.844
1568081180.165,14.648,30.273,32.715,45.898,62.012
1568081180.169,39.062,29.297,23.926,9.766,68.848
1568081180.173,41.504,24.414,28.320,15.137,48.340
1568081180.177,20.996,25.879,34.668,55.664,67.871
1568081180.181,15.625,25.391,28.320,56.641,106.934
1568081180.185,36.133,26.367,25.879,10.742,153.809
1568081180.189,45.898,30.273,30.762,0.000,103.516
1568081180.192,33.691,32.715,35.645,41.504,46.875
1568081180.196,21.973,35.645,38.574,62.012,63.965
1568081180.200,28.809,36.133,32.227,19.531,66.895
1568081180.204,42.969,31.738,24.902,-9.277,60.059
1568081180.208,25.879,26.855,25.391,23.926,33.691
1568081180.212,8.301,28.809,26.367,55.664,47.852
1568081180.216,23.926,29.297,26.367,33.691,-1.465
1568081180.220,45.410,30.762,28.320,-0.488,-24.414
1568081180.224,40.039,35.156,33.203,18.066,12.695
1568081180.228,19.043,30.762,37.598,58.594,73.730
1568081180.232,19.531,28.320,38.574,50.293,40.039
1568081180.235,44.434,29.297,37.109,9.277,-18.066
1568081180.239,49.805,31.738,39.062,11.230,-41.504
1568081180.243,22.461,30.273,37.598,52.734,-8.301
1568081180.247,13.672,26.855,30.762,61.035,5.859
1568081180.251,29.785,25.879,25.879,11.719,41.992
1568081180.255,38.086,27.344,25.391,-6.348,55.176
1568081180.259,24.414,27.832,31.738,36.621,-13.672
1568081180.263,17.090,24.902,33.203,61.035,-0.977
1568081180.267,33.203,25.391,27.344,26.855,-2.930
1568081180.271,53.223,26.855,28.320,3.906,-15.137
1568081180.275,38.574,31.250,32.227,34.668,20.996
1568081180.278,18.066,36.621,33.691,68.359,27.344
1568081180.282,28.809,37.109,34.668,57.129,15.625
1568081180.286,50.293,37.109,36.133,21.973,9.766
1568081180.290,47.363,35.645,35.156,31.250,17.578
1568081180.294,21.484,33.203,35.645,66.406,38.086
1568081180.298,15.625,34.668,35.645,60.547,46.875
1568081180.302,35.645,32.227,31.738,14.160,-8.301
1568081180.306,39.062,24.902,32.227,4.883,38.086
1568081180.310,23.926,22.949,34.180,49.316,30.762
1568081180.314,18.066,21.484,32.715,63.477,-64.453
1568081180.317,37.109,21.484,33.203,26.367,28.809
1568081180.321,52.734,22.949,38.086,8.789,67.383
1568081180.325,32.227,23.926,39.062,38.086,48.340
1568081180.329,20.508,22.949,31.738,65.430,17.578
1568081180.333,36.133,25.391,27.832,36.621,13.184
1568081180.337,56.152,34.180,27.832,7.812,37.109
1568081180.341,46.875,37.109,22.949,33.691,17.578
1568081180.345,24.902,32.227,20.508,62.988,-12.695
1568081180.349,29.297,29.297,27.344,43.945,36.621
1568081180.353,47.363,30.273,31.250,7.812,51.758
1568081180.357,42.969,32.715,31.250,13.672,13.184
1568081180.360,21.973,32.715,36.133,51.758,-8.301
1568081180.364,21.973,27.344,40.527,56.152,28.809
1568081180.368,44.922,27.832,41.992,14.160,85.938
1568081180.372,50.781,30.762,38.574,6.836,35.156
1568081180.376,26.855,25.879,33.691,49.805,31.738
1568081180.380,15.625,22.461,28.809,65.430,31.250
1568081180.384,29.785,25.879,22.461,24.414,-17.578
1568081180.388,39.551,24.414,20.508,0.000,12.207
1568081180.392,29.785,24.414,23.926,38.086,63.965
1568081180.396,15.625,27.344,31.738,65.430,28.320
1568081180.400,23.926,29.297,33.203,36.133,24.414
1568081180.403,42.480,28.320,28.320,-0.488,24.414
1568081180.407,30.273,25.391,28.809,16.113,12.207
1568081180.411,4.883,26.855,32.715,55.176,16.602
1568081180.415,8.789,29.785,31.250,46.387,1.953
1568081180.419,30.762,33.691,22.461,3.418,-51.270
1568081180.423,32.227,32.227,18.066,8.301,-5.371
1568081180.427,23.438,30.762,23.438,54.688,40.039
1568081180.431,23.926,33.203,28.320,65.430,21.484
1568081180.435,40.527,33.203,27.832,24.414,39.062
1568081180.439,52.734,33.203,28.320,10.742,12.695
1568081180.442,47.852,39.551,32.715,60.547,-9.766
1568081180.446,46.387,43.945,37.109,91.309,39.551
1568081180.450,45.410,33.203,36.133,37.598,3.418
1568081180.454,43.457,26.367,28.320,-5.371,8.301
1568081180.458,36.621,31.738,22.949,33.203,67.383
1568081180.462,15.625,27.344,26.367,62.988,22.949
1568081180.466,19.043,23.926,24.414,36.621,15.137
1568081180.470,40.527,27.832,23.926,0.488,23.438
1568081180.474,29.297,31.250,24.902,7.812,50.293
1568081180.478,16.113,32.715,24.414,51.758,58.105
1568081180.482,25.879,29.297,25.391,49.805,4.395
1568081180.485,44.434,28.809,23.926,9.277,10.254
1568081180.489,41.016,30.273,22.949,3.906,35.645
1568081180.493,16.113,30.762,23.926,41.016,40.527
1568081180.497,11.719,25.391,21.484,57.617,33.203
1568081180.501,34.180,23.926,20.020,16.113,10.742
1568081180.505,49.805,28.809,24.414,3.906,-20.508
1568081180.509,38.086,25.879,29.297,49.316,-11.719
1568081180.513,20.020,18.555,30.762,66.895,54.688
1568081180.517,31.250,16.113,28.320,25.391,76.172
1568081180.521,49.316,19.531,28.809,-3.418,15.137
1568081180.525,32.227,20.508,27.344,24.902,-42.969
1568081180.528,14.648,22.949,23.926,58.594,11.230
1568081180.532,24.902,35.156,20.020,44.434,19.043
1568081180.536,45.898,37.598,22.461,2.930,-4.395
1568081180.540,41.992,29.297,28.320,12.695,-30.762
1568081180.544,20.508,29.785,26.855,58.594,16.113
1568081180.548,21.484,30.762,28.809,59.570,54.688
1568081180.552,36.133,27.832,27.344,14.648,12.695
1568081180.556,38.086,27.832,25.879,8.301,22.949
1568081180.560,18.066,29.297,29.297,48.340,46.387
1568081180.564,7.324,31.250,28.320,55.176,8.301
1568081180.567,26.855,28.320,24.902,15.625,28.809
1568081180.571,38.574,28.320,17.090,-3.418,67.871
1568081180.575,20.020,24.902,15.137,32.227,65.918
1568081180.579,9.766,25.391,25.391,59.570,39.062
1568081180.583,26.367,27.344,26.855,30.273,41.016
1568081180.587,47.363,26.367,20.508,-4.395,55.664
1568081180.591,39.062,31.738,16.602,16.113,24.414
1568081180.595,22.949,36.621,20.996,59.082,31.738
1568081180.599,27.344,35.156,28.320,42.480,39.551
1568081180.603,45.410,32.227,30.762,1.953,20.508
1568081180.607,44.922,32.227,29.297,10.742,37.598
1568081180.610,14.648,29.297,26.855,43.457,58.594
1568081180.614,8.789,27.344,26.855,51.270,54.688
1568081180.618,31.738,26.367,29.785,12.695,49.316
1568081180.622,37.598,21.973,31.738,-2.441,53.711
1568081180.626,21.973,23.926,33.691,41.504,74.707
1568081180.630,11.719,29.785,29.785,61.523,20.020
1568081180.634,24.414,33.203,21.484,17.578,-11.230
1568081180.638,40.039,31.738,19.531,-7.812,51.758
1568081180.642,26.367,32.227,25.879,30.273,38.574
1568081180.646,9.277,32.227,32.715,60.547,29.297
1568081180.650,19.043,31.250,34.668,36.133,23.926
1568081180.653,42.480,29.785,30.762,1.465,23.926
1568081180.657,41.504,26.855,21.484,14.160,22.461
1568081180.661,16.602,24.902,21.973,47.363,16.113
1568081180.665,17.578,29.297,24.414,37.109,59.082
1568081180.669,41.504,30.273,23.438,0.488,44.434
1568081180.673,39.062,27.832,28.320,8.301,6.348
1568081180.677,18.555,34.668,32.227,51.270,66.406
1568081180.681,20.508,36.621,34.180,56.641,64.941
1568081180.685,40.527,34.668,25.391,11.230,41.504
1568081180.689,43.945,36.133,14.648,-4.883,36.621
1568081180.692,20.996,36.621,17.578,36.621,-30.273
1568081180.696,16.602,39.551,26.367,62.012,-5.859
1568081180.700,38.574,39.551,31.738,28.320,39.062
1568081180.704,51.270,30.273,31.250,-1.465,30.762
1568081180.708,40.039,24.902,36.133,30.762,14.648
1568081180.712,28.320,29.785,42.480,65.430,1.465
1568081180.716,32.227,32.227,41.016,33.691,12.207
1568081180.720,46.387,30.762,34.180,-7.324,47.852
