timestamps,TP9,AF7,AF8,TP10,Right AUX
1568080901.105,-16.602,15.625,48.340,68.359,20.020
1568080901.109,-21.973,18.066,43.457,64.453,46.387
1568080901.113,58.594,19.043,44.922,6.348,99.609
1568080901.117,77.637,20.508,46.875,4.395,62.012
1568080901.121,-1.953,24.414,41.992,62.500,13.184
1568080901.125,-26.367,22.949,35.645,83.008,23.438
1568080901.129,42.480,18.555,36.133,23.926,5.371
1568080901.133,75.195,20.020,40.039,0.977,10.742
1568080901.136,18.066,23.438,41.504,55.176,14.160
1568080901.140,-22.949,30.762,44.922,89.355,43.945
1568080901.144,38.086,30.762,40.039,36.621,85.449
1568080901.148,94.238,23.438,32.227,-13.672,18.066
1568080901.152,43.945,22.461,38.086,20.020,35.645
1568080901.156,-34.180,22.949,41.504,62.500,27.344
1568080901.160,-11.719,23.926,38.574,40.527,24.414
1568080901.164,67.871,22.461,38.086,-15.137,39.551
1568080901.168,63.477,25.391,31.738,-8.789,24.902
1568080901.172,-8.789,26.855,24.414,52.734,66.895
1568080901.175,-13.672,28.809,27.344,60.059,29.785
1568080901.179,60.059,32.227,29.785,0.488,-59.082
1568080901.183,71.777,31.738,23.926,-12.695,-41.992
1568080901.187,-11.230,25.879,24.902,41.992,0.000
1568080901.191,-54.199,23.926,28.320,64.453,7.812
1568080901.195,14.648,25.391,28.320,9.766,16.602
1568080901.199,59.082,21.973,32.715,-23.438,20.508
1568080901.203,-10.254,19.531,30.762,20.020,-5.371
1568080901.207,-64.453,21.973,27.344,69.824,-8.301
1568080901.211,-13.672,22.461,29.785,36.133,19.531
1568080901.215,52.734,22.461,37.598,-16.113,41.504
1568080901.218,24.414,23.926,36.621,14.648,32.715
1568080901.222,-33.691,22.461,32.227,62.988,32.227
1568080901.226,-1.465,22.949,35.645,43.945,29.785
1568080901.230,73.730,26.855,31.250,-13.672,20.508
1568080901.234,60.059,28.320,24.902,-5.859,35.156
1568080901.238,-12.695,27.832,24.414,56.641,37.109
1568080901.242,-22.461,26.855,27.344,63.477,13.672
1568080901.246,51.758,31.250,26.855,2.930,26.855
1568080901.250,77.148,32.715,27.344,-8.301,33.203
1568080901.254,17.090,31.738,35.156,48.828,-13.184
1568080901.258,-13.184,32.227,38.574,75.195,0.000
1568080901.261,39.062,20.508,32.227,23.926,68.359
1568080901.265,80.566,20.020,27.344,-12.207,54.688
1568080901.269,21.973,30.762,25.391,20.996,26.855
1568080901.273,-33.691,38.574,23.926,51.758,17.090
1568080901.277,20.996,40.039,24.414,25.391,-33.203
1568080901.281,102.539,39.062,23.438,-2.930,-1.953
1568080901.285,93.750,42.969,22.461,23.438,76.172
1568080901.289,29.297,40.527,28.320,73.730,51.270
1568080901.293,27.344,39.551,30.273,60.547,12.695
1568080901.297,87.891,42.480,24.902,0.000,34.180
1568080901.300,79.102,39.551,19.531,-0.977,18.555
1568080901.304,-8.789,38.086,22.949,55.176,40.039
1568080901.308,-37.109,43.945,27.344,71.289,61.035
1568080901.312,26.367,37.598,28.320,15.625,-25.879
1568080901.316,56.641,27.832,25.879,-5.859,-23.926
1568080901.320,-9.277,31.250,27.832,48.828,13.184
1568080901.324,-57.129,36.133,36.133,77.637,-1.953
1568080901.328,8.301,38.086,27.832,23.926,50.781
1568080901.332,58.105,35.156,17.578,-18.066,43.457
1568080901.336,0.977,29.785,21.973,22.461,3.906
1568080901.340,-57.617,29.785,24.902,70.801,39.062
1568080901.343,-23.438,27.344,26.367,45.410,36.621
1568080901.347,39.551,25.391,28.320,-3.906,0.488
1568080901.351,17.090,31.250,30.762,14.648,-47.363
1568080901.355,-49.805,31.738,36.133,76.660,-36.133
1568080901.359,-41.992,27.832,31.738,77.637,-16.602
1568080901.363,34.180,21.973,21.484,13.184,-1.953
1568080901.367,48.340,26.855,25.391,1.465,36.621
1568080901.371,-19.043,34.668,33.691,62.988,65.430
1568080901.375,-32.227,33.691,33.203,81.055,56.152
1568080901.379,53.711,34.180,31.250,19.043,73.730
1568080901.383,87.891,35.645,33.203,-7.324,98.145
1568080901.386,19.531,38.574,39.551,47.363,34.668
1568080901.390,-20.996,40.039,39.551,83.984,34.180
1568080901.394,35.645,34.668,34.180,40.039,31.738
1568080901.398,89.844,28.320,32.715,-2.930,12.695
1568080901.402,53.223,28.320,31.738,34.180,12.695
1568080901.406,-2.441,28.320,31.738,83.984,49.805
1568080901.410,9.766,25.391,31.738,56.641,63.965
1568080901.414,64.941,26.855,27.832,-1.465,17.578
1568080901.418,45.410,27.832,33.691,8.789,30.273
1568080901.422,-37.109,27.832,41.992,68.848,46.875
1568080901.425,-42.969,31.738,34.180,67.871,55.176
1568080901.429,32.715,30.762,21.484,4.883,58.594
1568080901.433,53.223,28.320,17.578,-2.930,-19.043
1568080901.437,-18.555,30.762,21.973,59.082,-16.602
1568080901.441,-54.688,35.156,20.508,78.125,89.844
1568080901.445,21.484,36.133,17.090,21.973,77.637
1568080901.449,69.824,31.250,28.809,3.906,29.785
1568080901.453,-8.789,28.320,38.574,40.527,20.020
1568080901.457,-73.730,28.809,32.715,64.453,51.758
1568080901.461,-29.785,24.414,31.738,22.949,50.781
1568080901.465,27.344,24.414,33.203,-23.438,28.320
1568080901.468,-3.906,24.414,36.133,14.160,83.984
1568080901.472,-72.754,20.020,40.527,69.824,61.523
1568080901.476,-53.223,21.973,38.574,55.176,26.367
1568080901.480,21.484,23.438,37.109,4.883,27.344
1568080901.484,23.438,29.297,35.645,14.160,26.855
1568080901.488,-50.293,35.645,38.574,70.312,27.344
1568080901.492,-67.871,34.180,40.527,76.172,76.660
1568080901.496,6.348,29.785,31.250,16.113,105.957
1568080901.500,24.902,28.809,26.367,-0.977,59.082
1568080901.504,-48.828,26.855,33.203,49.316,26.367
1568080901.508,-88.867,26.367,36.621,78.613,-29.785
1568080901.511,-34.668,26.855,30.762,23.926,-24.414
1568080901.515,-3.418,19.531,28.809,-18.555,20.996
1568080901.519,-64.453,20.508,37.109,27.344,25.879
1568080901.523,-117.188,25.879,41.016,68.359,35.156
1568080901.527,-67.383,23.926,30.762,30.273,29.297
1568080901.531,0.977,20.508,25.391,-22.461,10.254
1568080901.535,-30.273,20.508,31.738,1.953,20.996
1568080901.539,-99.121,29.297,31.738,57.617,33.691
1568080901.543,-89.355,33.691,31.738,49.316,54.199
1568080901.547,-12.207,31.250,36.133,-3.418,20.508
1568080901.550,-7.324,32.715,36.133,-2.441,23.438
1568080901.554,-83.984,30.762,37.598,55.664,64.941
1568080901.558,-100.586,28.809,29.785,64.941,31.738
1568080901.562,-22.461,29.297,22.949,7.324,-3.418
1568080901.566,16.602,30.762,28.809,-9.766,27.832
1568080901.570,-36.133,34.180,36.133,45.410,15.625
1568080901.574,-62.500,31.250,35.645,79.102,18.555
1568080901.578,3.906,26.855,32.715,24.414,47.852
1568080901.582,55.664,26.367,36.621,-18.555,-25.879
1568080901.586,15.137,26.855,35.156,25.391,-9.766
1568080901.590,-41.992,31.250,31.738,71.777,46.387
1568080901.593,-16.113,35.156,33.691,40.527,9.277
1568080901.597,46.875,35.645,30.762,-15.137,-17.090
1568080901.601,22.461,35.645,29.785,3.906,-14.160
1568080901.605,-52.734,34.668,35.645,61.523,19.531
1568080901.609,-50.781,33.691,36.133,56.152,32.715
1568080901.613,23.438,30.273,37.598,-2.930,41.016
1568080901.617,26.855,27.344,41.016,-12.695,25.391
1568080901.621,-48.828,29.297,38.086,41.992,7.324
1568080901.625,-71.777,29.297,37.598,60.547,54.688
1568080901.629,1.465,27.832,33.691,2.441,55.664
1568080901.633,40.039,26.855,31.250,-23.438,-1.953
1568080901.636,-31.738,24.902,38.086,31.738,-22.461
1568080901.640,-96.680,26.855,39.551,67.383,17.090
1568080901.644,-64.453,33.203,35.156,17.090,39.062
1568080901.648,-22.949,33.691,36.621,-25.879,36.133
1568080901.652,-70.312,32.715,41.504,13.184,66.406
1568080901.656,-140.625,32.715,35.156,63.477,52.734
1568080901.660,-122.070,29.785,32.715,37.598,24.414
1568080901.664,-44.922,31.250,32.227,-19.043,18.555
1568080901.668,-40.039,34.668,30.273,9.766,19.531
1568080901.672,-129.395,28.809,38.086,64.453,69.336
1568080901.675,-157.715,20.020,41.016,37.598,96.191
1568080901.679,-81.055,16.602,40.527,-20.020,24.414
1568080901.683,-65.918,15.137,46.387,-18.066,14.160
1568080901.687,-143.066,18.555,43.457,40.039,-14.648
1568080901.691,-165.039,18.066,39.551,60.059,-28.320
1568080901.695,-83.496,14.648,39.062,-0.488,26.855
1568080901.699,-21.973,20.020,40.527,-23.438,46.387
1568080901.703,-65.918,22.949,44.434,30.762,56.641
1568080901.707,-118.164,24.414,41.992,69.336,18.066
1568080901.711,-54.199,25.879,39.062,35.156,15.625
1568080901.715,32.715,27.832,40.039,-5.859,68.359
1568080901.718,0.977,29.785,40.039,19.043,46.875
1568080901.722,-71.289,25.879,35.156,65.430,34.668
1568080901.726,-38.574,20.508,30.273,48.340,24.902
1568080901.730,41.992,16.113,29.785,-7.812,26.367
1568080901.734,20.508,18.066,32.227,-0.977,31.738
1568080901.738,-78.125,20.020,34.668,57.129,5.371
1568080901.742,-94.727,16.602,38.086,63.477,22.461
1568080901.746,-0.977,12.695,42.480,5.371,47.852
1568080901.750,37.109,14.160,37.109,-11.230,-4.395
1568080901.754,-26.367,19.531,31.250,44.434,43.945
1568080901.758,-66.895,24.414,32.715,75.195,44.922
1568080901.761,-30.762,25.879,26.367,20.020,19.531
1568080901.765,-8.301,24.414,25.391,-16.602,-24.414
1568080901.769,-77.148,22.461,31.738,29.297,1.953
1568080901.773,-143.555,23.926,31.738,70.801,63.477
1568080901.777,-94.727,24.902,28.809,33.203,53.223
1568080901.781,-7.324,24.902,31.738,-16.602,78.125
1568080901.785,-8.301,28.809,36.133,10.254,54.688
1568080901.789,-64.453,30.273,30.273,62.988,57.129
1568080901.793,-41.992,23.438,19.531,49.316,50.293
1568080901.797,41.504,14.648,20.508,-8.301,40.039
1568080901.800,45.898,18.555,26.367,-3.418,24.902
1568080901.804,-38.574,24.414,28.809,57.617,26.367
1568080901.808,-62.988,23.926,31.250,73.730,22.461
1568080901.812,19.043,25.879,30.762,14.648,-23.438
1568080901.816,56.152,26.855,27.832,-10.742,-15.625
1568080901.820,-14.648,25.879,26.367,49.316,3.418
1568080901.824,-61.035,26.367,28.320,84.961,63.477
1568080901.828,0.000,22.949,29.785,29.785,65.918
1568080901.832,58.105,20.508,32.715,-12.695,42.480
1568080901.836,17.578,25.879,35.645,27.344,27.832
1568080901.840,-28.809,28.809,33.203,74.219,-1.953
1568080901.843,17.578,30.273,31.738,48.340,29.297
1568080901.847,93.262,32.715,30.762,0.000,83.496
1568080901.851,83.008,31.250,29.297,17.090,54.688
1568080901.855,19.531,28.809,33.691,67.871,41.504
1568080901.859,23.438,30.273,33.203,61.523,0.000
1568080901.863,95.703,23.438,29.297,-1.465,11.230
1568080901.867,104.492,21.484,28.809,-8.789,20.508
1568080901.871,33.691,31.250,32.227,48.340,3.906
1568080901.875,9.766,32.227,30.762,62.500,35.156
1568080901.879,85.449,32.715,23.438,2.930,12.695
1568080901.883,132.812,36.133,26.855,-22.949,33.203
1568080901.886,75.195,35.645,33.691,34.180,9.277
1568080901.890,27.832,37.109,33.691,73.730,-16.602
1568080901.894,76.172,35.645,31.738,23.438,3.906
1568080901.898,129.883,35.156,31.250,-19.531,18.066
1568080901.902,93.750,35.156,29.785,19.043,4.883
1568080901.906,27.344,30.762,28.320,65.918,1.465
1568080901.910,46.387,27.832,27.832,37.109,26.367
1568080901.914,117.188,28.320,34.668,-14.160,16.113
1568080901.918,101.562,29.785,37.109,0.977,-36.621
1568080901.922,25.391,27.832,33.691,57.129,-17.578
1568080901.925,21.484,27.344,32.715,62.988,28.320
1568080901.929,91.797,29.785,30.762,-1.953,65.430
1568080901.933,108.398,31.738,28.320,-17.090,35.645
1568080901.937,42.969,28.809,26.855,42.969,41.992
1568080901.941,10.742,27.832,28.320,67.383,1.465
1568080901.945,73.730,28.809,27.832,13.672,-48.828
1568080901.949,115.723,27.344,32.227,-17.090,54.688
1568080901.953,55.176,26.367,36.133,34.180,81.543
1568080901.957,8.789,31.250,38.086,79.102,56.641
1568080901.961,60.547,36.133,40.527,34.668,10.742
1568080901.965,117.676,32.227,38.086,-18.555,5.371
1568080901.968,74.219,29.297,37.109,15.625,4.395
1568080901.972,1.465,31.738,37.598,69.824,27.832
1568080901.976,23.926,34.668,38.574,49.316,79.102
1568080901.980,93.750,31.250,37.109,-7.324,56.152
1568080901.984,81.055,25.879,33.203,-1.465,57.617
1568080901.988,4.883,22.949,33.203,49.805,12.695
1568080901.992,-7.324,22.949,31.738,56.641,16.113
1568080901.996,61.035,26.367,29.785,-1.465,53.711
1568080902.000,76.172,29.297,32.227,-18.066,-1.953
1568080902.004,5.859,30.762,32.715,41.016,40.039
1568080902.008,-25.879,31.250,33.203,65.918,83.008
1568080902.011,39.062,29.297,35.156,8.789,15.625
1568080902.015,91.309,30.273,33.691,-25.391,42.480
1568080902.019,41.504,30.762,33.691,22.949,41.992
1568080902.023,-8.789,26.855,35.156,66.406,4.395
1568080902.027,36.621,24.902,31.250,30.762,45.410
1568080902.031,97.168,22.461,33.203,-13.184,25.391
1568080902.035,68.359,20.996,38.574,18.066,30.273
1568080902.039,3.906,22.461,39.062,79.102,14.160
1568080902.043,18.555,29.297,38.574,67.871,-12.207
1568080902.047,90.820,31.250,38.574,0.977,22.461
1568080902.050,93.750,25.879,38.086,0.977,35.645
1568080902.054,29.297,31.738,36.621,60.547,25.391
1568080902.058,8.789,41.016,28.809,72.754,13.672
1568080902.062,72.266,37.598,22.949,15.625,36.133
1568080902.066,106.445,35.156,21.973,-4.883,43.945
1568080902.070,44.922,35.156,24.414,55.176,33.691
1568080902.074,8.301,31.250,31.250,96.191,46.875
1568080902.078,73.730,30.273,31.250,41.992,56.152
1568080902.082,130.859,36.133,28.320,-2.930,82.031
1568080902.086,88.867,39.551,34.180,40.039,62.988
1568080902.090,27.344,40.039,36.133,87.402,30.762
1568080902.093,60.547,41.016,27.832,53.223,-2.930
1568080902.097,127.930,41.016,26.855,-4.395,-2.441
1568080902.101,91.309,34.180,31.738,15.625,-1.465
1568080902.105,11.719,28.320,33.203,65.430,4.883
1568080902.109,18.066,29.785,34.180,54.688,1.465
1568080902.113,81.055,30.273,35.156,-0.488,-15.137
1568080902.117,82.031,27.344,33.203,-6.836,50.293
1568080902.121,14.648,27.832,34.180,54.199,87.402
1568080902.125,1.953,33.203,31.250,73.730,33.691
1568080902.129,74.219,32.715,20.996,11.230,32.227
1568080902.133,109.375,36.133,18.066,-11.719,34.668
1568080902.136,48.828,37.109,20.996,42.969,0.977
1568080902.140,-7.812,36.133,27.344,77.637,-1.953
1568080902.144,42.480,33.203,29.785,27.344,33.691
1568080902.148,106.445,29.297,30.273,-17.578,40.039
1568080902.152,64.941,29.297,32.227,20.996,21.973
1568080902.156,3.418,26.367,33.691,69.824,57.129
1568080902.160,31.250,24.902,29.297,43.457,112.305
1568080902.164,92.773,29.785,18.066,-12.207,61.523
1568080902.168,75.195,33.203,21.484,3.906,-9.766
1568080902.172,5.859,35.156,28.809,63.965,12.695
1568080902.175,-2.930,33.203,24.414,62.012,34.180
1568080902.179,57.129,25.879,21.484,0.000,-35.156
1568080902.183,69.824,25.391,28.809,-7.812,-19.531
1568080902.187,-8.789,30.273,37.109,46.875,53.223
1568080902.191,-38.086,29.785,36.621,72.266,47.363
1568080902.195,41.504,23.438,33.203,21.484,-0.488
1568080902.199,74.219,24.414,28.809,-14.648,19.043
1568080902.203,0.977,35.156,24.414,21.484,29.785
1568080902.207,-56.152,41.992,25.391,57.129,21.973
1568080902.211,8.789,37.109,27.344,34.668,17.090
1568080902.215,77.148,38.574,21.484,-4.395,17.090
1568080902.218,32.227,38.574,21.484,17.578,71.777
1568080902.222,-23.438,40.039,23.438,71.777,86.914
1568080902.226,3.418,41.016,20.996,57.617,57.129
1568080902.230,62.500,37.598,21.973,-3.418,8.789
1568080902.234,36.621,39.551,24.414,-0.488,0.000
1568080902.238,-43.457,37.598,27.344,55.664,5.371
1568080902.242,-48.828,35.645,28.320,64.453,41.992
1568080902.246,30.273,38.086,24.902,2.930,33.691
1568080902.250,54.688,40.039,25.391,-13.184,-16.113
1568080902.254,-18.555,39.062,31.738,47.852,27.344
1568080902.258,-51.758,39.551,31.738,74.707,70.312
1568080902.261,20.020,42.969,22.461,18.555,52.734
1568080902.265,62.012,44.434,16.602,-17.090,35.156
1568080902.269,3.906,40.039,21.484,29.297,18.555
1568080902.273,-42.969,33.203,26.367,74.219,20.508
1568080902.277,11.719,34.180,25.391,36.133,82.520
1568080902.281,80.078,36.621,24.414,-14.160,74.219
1568080902.285,48.828,35.645,24.414,11.230,22.949
1568080902.289,-20.508,34.180,23.438,63.965,2.441
1568080902.293,-1.953,35.156,27.832,59.082,16.113
1568080902.297,73.730,38.086,25.391,2.441,19.043
1568080902.300,74.707,39.551,18.066,0.977,30.762
1568080902.304,2.930,41.016,22.949,57.617,77.637
1568080902.308,-33.203,38.574,31.250,73.730,61.523
1568080902.312,-0.977,32.715,32.227,13.184,5.859
1568080902.316,10.742,30.762,29.785,-14.648,42.969
1568080902.320,-41.504,33.691,32.227,43.945,62.500
1568080902.324,-81.055,33.203,34.180,76.172,18.555
1568080902.328,-20.508,33.691,31.738,24.414,-20.996
1568080902.332,53.223,38.086,26.367,-12.207,-6.348
1568080902.336,10.254,41.992,26.855,32.227,-4.395
1568080902.340,-41.504,42.969,31.738,78.125,15.137
1568080902.343,9.277,42.480,33.691,45.898,16.113
1568080902.347,79.590,35.645,32.715,-12.207,-33.691
1568080902.351,62.012,27.832,31.250,1.465,-16.113
1568080902.355,-10.742,28.809,33.691,56.152,1.953
1568080902.359,-3.906,35.156,36.621,55.176,13.672
1568080902.363,77.637,37.598,32.227,0.977,-20.996
1568080902.367,74.219,36.133,31.250,-8.789,2.441
1568080902.371,-2.930,33.203,32.715,46.387,36.621
1568080902.375,-22.461,33.203,32.227,65.918,-14.160
1568080902.379,39.551,38.086,30.273,11.230,-40.527
1568080902.383,72.266,36.133,28.809,-12.695,17.578
1568080902.386,15.137,33.203,29.297,42.480,24.902
1568080902.390,-29.297,37.109,31.250,80.566,-20.996
1568080902.394,25.879,36.621,31.738,30.273,25.879
1568080902.398,80.078,33.691,30.762,-15.625,32.715
1568080902.402,28.809,31.738,29.297,20.508,1.465
1568080902.406,-45.898,33.203,29.785,67.871,36.133
1568080902.410,-12.695,39.551,29.297,46.387,58.594
1568080902.414,61.523,40.527,26.855,-6.348,23.438
1568080902.418,34.668,38.086,27.344,8.789,0.000
1568080902.422,-37.109,37.598,26.855,70.801,25.879
1568080902.425,-27.344,32.227,26.855,71.777,59.082
1568080902.429,51.270,31.250,33.203,11.719,64.941
1568080902.433,70.801,31.250,34.180,-1.953,62.012
1568080902.437,-0.977,31.250,29.785,52.734,36.133
1568080902.441,-34.180,32.227,27.832,75.684,42.969
1568080902.445,6.348,28.320,22.949,12.695,13.672
1568080902.449,8.301,28.809,20.996,-22.461,-12.207
1568080902.453,-70.312,33.203,29.297,29.297,28.809
1568080902.457,-120.605,37.109,34.668,70.312,56.152
1568080902.461,-55.176,32.715,30.273,23.926,64.453
1568080902.465,20.020,31.250,30.273,-21.484,26.855
1568080902.468,-4.395,34.180,32.715,15.625,-11.719
1568080902.472,-61.035,34.180,25.391,68.359,13.184
1568080902.476,-30.762,35.156,23.926,47.852,18.066
1568080902.480,50.781,36.621,22.949,-9.766,13.184
1568080902.484,52.246,34.180,25.391,4.883,56.152
1568080902.488,-11.719,32.227,28.809,66.406,33.203
1568080902.492,-11.719,33.691,28.809,72.266,59.570
1568080902.496,75.195,38.574,31.738,11.230,64.453
1568080902.500,107.422,42.480,32.227,-6.836,11.719
1568080902.504,45.898,38.086,33.203,50.293,15.137
1568080902.508,14.648,31.738,31.250,78.125,28.320
1568080902.511,79.102,31.738,26.367,19.043,45.410
1568080902.515,135.742,37.109,24.414,-24.414,41.016
1568080902.519,91.309,42.480,29.785,21.973,78.613
1568080902.523,40.039,44.922,32.715,69.824,39.551
1568080902.527,89.355,38.086,32.715,31.250,-9.766
1568080902.531,154.785,28.320,33.203,-21.973,-2.930
1568080902.535,125.977,31.250,31.738,13.184,38.574
1568080902.539,49.805,32.227,27.832,75.684,11.719
1568080902.543,68.848,30.273,23.926,62.012,-33.691
1568080902.547,159.180,31.250,26.367,0.000,26.855
1568080902.550,155.762,27.344,34.180,-3.418,44.434
1568080902.554,68.359,28.320,39.551,52.246,-2.930
1568080902.558,42.969,30.273,36.133,70.312,15.137
1568080902.562,111.816,28.809,26.855,9.766,62.012
1568080902.566,142.578,29.785,26.367,-17.090,13.184
1568080902.570,72.754,34.668,31.250,48.828,-13.184
1568080902.574,28.809,37.109,33.203,90.820,1.465
1568080902.578,90.820,36.621,30.762,35.645,52.246
1568080902.582,141.602,37.109,25.391,-10.742,99.121
1568080902.586,83.008,35.645,29.297,36.133,64.941
1568080902.590,24.902,32.715,35.156,88.867,89.355
1568080902.593,67.383,32.715,32.715,54.688,83.496
1568080902.597,130.859,30.762,27.832,-9.766,28.320
1568080902.601,104.492,28.809,26.855,13.184,13.672
1568080902.605,24.902,32.227,32.227,77.148,-33.691
1568080902.609,22.461,33.691,31.738,65.918,52.734
1568080902.613,97.656,27.832,22.949,-0.977,99.121
1568080902.617,109.863,25.879,20.020,-14.648,-11.230
1568080902.621,33.203,31.250,22.461,51.270,17.578
1568080902.625,7.324,33.691,26.367,77.637,86.914
1568080902.629,87.402,34.668,26.855,8.789,41.016
1568080902.633,121.094,38.086,28.809,-21.973,7.324
1568080902.636,48.828,40.039,38.574,34.668,48.340
1568080902.640,0.977,37.109,38.574,71.289,57.129
1568080902.644,55.664,30.762,26.367,22.949,49.316
1568080902.648,111.816,25.879,19.043,-22.461,63.965
1568080902.652,70.801,24.414,22.949,21.973,54.688
1568080902.656,12.207,27.344,29.297,80.078,24.902
1568080902.660,45.898,34.180,30.273,53.223,34.668
1568080902.664,118.652,36.133,28.320,-10.254,-26.855
1568080902.668,105.469,29.785,29.785,3.418,-43.945
1568080902.672,32.227,28.320,33.691,68.359,22.949
1568080902.675,28.320,33.691,32.715,68.359,-22.949
1568080902.679,98.633,31.738,34.180,3.906,-49.316
1568080902.683,109.863,26.367,29.785,-10.254,-45.898
1568080902.687,36.133,26.367,28.809,46.875,-42.969
1568080902.691,7.812,27.344,31.250,72.754,-3.418
1568080902.695,76.660,29.297,25.391,19.043,47.852
1568080902.699,110.352,32.227,23.438,-15.137,61.523
1568080902.703,53.711,35.156,31.250,31.738,54.199
1568080902.707,6.836,37.598,35.645,76.660,30.273
1568080902.711,50.293,36.133,23.926,29.297,19.043
1568080902.715,108.398,32.715,19.043,-22.461,28.809
1568080902.718,74.707,30.762,24.902,11.230,34.180
1568080902.722,6.836,32.715,23.926,65.430,36.621
1568080902.726,30.273,35.645,22.949,44.922,39.062
1568080902.730,111.816,35.645,25.879,-15.625,33.691
1568080902.734,101.562,32.227,24.902,-2.930,70.312
1568080902.738,19.531,30.273,27.832,59.570,40.039
1568080902.742,8.789,31.250,30.762,64.453,-1.465
1568080902.746,83.496,28.809,29.297,5.859,18.555
1568080902.750,111.328,25.879,28.809,-13.672,-12.695
1568080902.754,41.992,32.227,27.344,43.945,31.738
1568080902.758,1.953,36.133,31.250,80.078,27.832
1568080902.761,67.871,34.668,31.738,25.391,38.086
1568080902.765,115.234,31.250,27.344,-11.719,26.367
1568080902.769,53.223,33.691,28.320,32.715,56.152
1568080902.773,-4.883,37.598,33.691,69.336,54.199
1568080902.777,35.645,33.691,28.809,30.273,14.160
1568080902.781,95.215,32.715,20.996,-19.531,30.273
1568080902.785,63.965,35.645,21.484,7.324,10.254
1568080902.789,-12.695,32.715,24.902,63.477,10.254
1568080902.793,-0.977,27.344,25.391,50.781,30.762
1568080902.797,77.637,31.250,26.367,-4.395,47.363
1568080902.800,77.148,39.062,30.273,5.859,-0.488
1568080902.804,3.418,39.551,32.715,68.848,51.758
1568080902.808,-11.719,34.180,32.715,74.219,35.156
1568080902.812,62.500,28.809,27.832,7.812,-24.414
1568080902.816,89.844,28.809,24.414,-17.578,7.812
1568080902.820,18.066,33.691,28.809,37.109,58.105
1568080902.824,-22.949,33.203,35.156,76.172,45.898
1568080902.828,36.621,26.855,33.691,29.297,-14.160
1568080902.832,86.914,27.832,28.320,-13.184,5.371
1568080902.836,26.855,34.180,22.461,12.207,26.855
1568080902.840,-39.062,38.574,17.578,53.711,16.602
1568080902.843,11.719,40.527,19.531,41.504,31.250
1568080902.847,77.148,47.852,18.555,-16.113,49.805
1568080902.851,41.016,49.805,12.207,-4.883,7.324
1568080902.855,-32.227,48.828,7.812,57.617,-36.133
1568080902.859,-36.621,51.270,6.836,47.852,-4.395
1568080902.863,32.715,54.688,1.953,-16.113,11.719
1568080902.867,49.805,55.176,-3.906,-23.926,-20.020
1568080902.871,-16.113,50.781,1.953,40.039,2.441
1568080902.875,-38.574,53.223,8.789,67.871,35.645
1568080902.879,36.621,54.199,14.648,12.207,31.738
1568080902.883,83.496,48.828,15.625,-11.230,74.219
1568080902.886,24.414,45.410,16.602,46.387,89.355
1568080902.890,-29.785,41.992,17.578,77.148,51.270
1568080902.894,19.043,44.922,14.648,28.320,46.387
1568080902.898,79.102,44.922,14.648,-14.648,-14.648
1568080902.902,40.527,41.016,18.555,18.066,14.648
1568080902.906,-14.648,41.504,25.391,69.824,57.617
1568080902.910,18.066,42.480,24.414,47.852,25.879
1568080902.914,79.102,42.480,21.973,-7.812,2.441
1568080902.918,59.082,42.969,21.484,3.906,-76.172
1568080902.922,-15.137,43.945,24.902,62.500,-68.359
1568080902.925,-14.648,41.504,24.902,64.453,11.230
1568080902.929,62.988,44.434,20.020,4.883,34.180
1568080902.933,77.637,47.852,21.484,-11.719,72.754
1568080902.937,8.789,44.922,30.273,47.852,53.711
1568080902.941,-18.555,37.109,29.785,76.172,18.555
1568080902.945,44.922,28.809,23.926,17.090,30.273
1568080902.949,81.543,30.273,28.809,-14.160,25.391
1568080902.953,15.137,32.227,33.203,37.598,43.945
1568080902.957,-48.828,28.320,29.297,71.777,64.453
1568080902.961,-5.859,27.832,26.855,24.414,110.840
1568080902.965,52.734,31.738,26.855,-17.090,93.750
1568080902.968,11.230,35.156,29.297,21.973,23.926
1568080902.972,-57.617,33.203,32.715,72.266,28.809
1568080902.976,-38.574,36.621,26.855,50.293,31.250
1568080902.980,32.715,41.504,20.508,-3.418,41.992
1568080902.984,32.715,43.457,29.785,3.906,45.410
1568080902.988,-37.598,40.039,33.691,62.500,55.664
1568080902.992,-52.246,34.668,25.879,71.777,76.660
1568080902.996,13.672,33.203,25.391,8.789,5.859
1568080903.000,33.203,30.273,31.250,-6.348,-14.648
1568080903.004,-33.691,29.785,33.203,47.852,0.977
1568080903.008,-62.012,31.250,33.203,74.707,31.250
1568080903.011,11.719,25.391,28.320,19.043,44.922
1568080903.015,61.523,23.438,25.391,-24.414,3.906
1568080903.019,9.766,29.785,29.785,22.949,3.906
1568080903.023,-43.457,30.762,27.832,65.918,-4.883
1568080903.027,9.766,31.250,20.996,23.926,-20.996
1568080903.031,82.520,33.203,19.531,-25.879,32.715
1568080903.035,46.387,35.645,20.020,1.953,33.203
1568080903.039,-24.414,32.715,20.508,67.383,61.523
1568080903.043,-7.812,34.668,26.367,64.453,18.555
1568080903.047,59.082,35.156,26.855,0.977,16.113
1568080903.050,58.594,29.785,30.762,2.930,85.938
1568080903.054,-17.578,32.227,36.133,65.918,44.922
1568080903.058,-41.504,32.715,30.273,75.684,59.082
1568080903.062,28.320,31.738,25.879,9.766,17.578
1568080903.066,45.410,29.297,24.902,-16.113,-30.273
1568080903.070,-31.250,27.832,26.367,39.062,9.277
1568080903.074,-74.219,29.785,22.461,71.289,-0.488
1568080903.078,-14.160,26.855,18.555,17.578,20.020
1568080903.082,44.434,22.461,21.484,-23.438,17.090
1568080903.086,2.441,25.879,26.855,17.578,14.648
1568080903.090,-48.340,31.738,35.156,63.965,36.133
1568080903.093,-4.395,32.227,36.621,38.086,42.969
1568080903.097,71.289,28.320,27.344,-4.395,62.500
1568080903.101,72.754,29.785,25.391,34.180,7.812
1568080903.105,-8.301,32.715,26.855,71.289,-42.969
1568080903.109,-26.367,33.691,19.531,34.180,3.906
1568080903.113,58.105,34.668,14.648,-17.578,17.090
1568080903.117,68.359,28.320,19.043,-22.461,5.371
1568080903.121,-15.137,26.855,21.484,17.578,31.738
1568080903.125,-49.805,26.367,21.484,24.902,38.574
1568080903.129,26.367,20.020,30.273,-24.902,62.500
1568080903.133,64.453,15.625,36.621,-51.758,35.156
1568080903.136,-11.719,12.695,34.180,-14.648,-20.508
1568080903.140,-64.453,16.602,37.109,25.879,25.391
1568080903.144,-3.906,16.113,42.480,-10.254,50.293
1568080903.148,40.039,7.812,39.551,-64.453,42.480
1568080903.152,-1.465,11.230,32.227,-28.809,30.762
1568080903.156,-49.805,18.066,30.273,30.273,92.773
1568080903.160,-23.438,20.508,35.156,13.184,73.242
1568080903.164,43.945,23.926,36.133,-35.645,-11.230
1568080903.168,37.598,25.879,32.715,-21.973,25.391
1568080903.172,-30.273,24.414,33.203,43.457,-12.695
1568080903.175,-34.668,22.949,30.762,43.457,-22.461
1568080903.179,39.062,21.973,26.855,-24.414,4.395
1568080903.183,46.387,20.508,27.344,-37.598,22.949
1568080903.187,-35.156,16.602,33.691,24.414,63.965
1568080903.191,-61.523,11.719,39.062,53.223,63.965
1568080903.195,20.996,11.719,39.062,0.000,25.879
1568080903.199,71.777,14.648,39.062,-30.762,14.648
1568080903.203,4.395,20.020,36.133,22.461,57.617
1568080903.207,-49.805,22.461,32.715,66.895,67.871
1568080903.211,3.906,20.508,30.762,22.949,28.320
1568080903.215,65.918,20.996,28.809,-26.367,41.504
1568080903.218,31.250,20.996,34.180,11.230,79.590
1568080903.222,-27.832,27.832,35.156,65.430,62.988
1568080903.226,0.000,34.668,32.227,44.922,17.578
1568080903.230,67.871,34.180,32.715,-13.184,24.414
1568080903.234,56.152,35.156,34.668,-9.277,36.133
1568080903.238,-12.695,36.133,35.156,51.758,56.641
1568080903.242,-23.438,33.691,32.227,62.012,51.758
1568080903.246,44.434,29.785,30.762,0.488,-0.977
1568080903.250,67.383,29.785,30.273,-16.602,14.160
1568080903.254,-9.277,27.344,34.668,37.109,80.078
1568080903.258,-47.363,23.438,39.551,66.406,-2.930
1568080903.261,26.367,22.461,37.109,14.160,-34.180
1568080903.265,72.754,23.438,34.668,-23.438,39.062
1568080903.269,13.184,28.320,38.086,24.414,39.551
1568080903.273,-37.109,33.691,37.109,68.848,59.570
1568080903.277,8.789,35.156,27.832,24.902,29.785
1568080903.281,92.285,37.109,22.461,-5.371,-0.488
1568080903.285,65.918,30.273,30.762,29.297,14.648
1568080903.289,-38.086,22.949,40.039,51.758,3.906
1568080903.293,-36.133,22.949,40.039,25.391,64.941
1568080903.297,40.527,20.508,40.039,-34.180,54.199
1568080903.300,43.457,16.602,47.852,-25.879,9.277
1568080903.304,-30.762,11.230,48.340,37.598,-60.059
1568080903.308,-51.270,10.254,43.945,47.363,-2.441
1568080903.312,22.461,13.184,45.898,-16.113,51.758
1568080903.316,53.223,13.184,50.781,-25.879,-22.461
1568080903.320,-7.812,13.672,51.270,40.527,-48.340
1568080903.324,-38.574,17.578,52.734,70.312,-27.832
1568080903.328,22.461,11.230,51.758,19.043,9.277
1568080903.332,70.312,9.277,47.363,-22.949,69.336
1568080903.336,22.949,15.137,45.898,19.531,62.500
1568080903.340,-34.180,16.113,41.016,68.848,51.270
1568080903.343,-4.395,13.672,36.621,30.273,1.465
1568080903.347,58.105,11.719,33.691,-28.809,-25.391
1568080903.351,33.203,16.602,30.762,-9.277,17.090
1568080903.355,-37.598,21.484,35.156,54.199,31.738
1568080903.359,-30.762,21.973,38.086,45.898,51.270
1568080903.363,48.828,23.438,29.297,-19.043,20.996
1568080903.367,71.777,27.832,22.461,-19.531,53.711
1568080903.371,-7.324,25.879,26.367,42.969,57.617
1568080903.375,-36.621,22.461,31.738,68.359,23.926
1568080903.379,48.340,21.973,29.297,10.254,30.762
1568080903.383,86.914,23.926,28.809,-11.719,2.441
1568080903.386,16.602,23.926,34.180,47.852,-20.508
1568080903.390,-25.391,19.531,37.109,83.496,49.805
1568080903.394,42.480,23.926,35.645,35.156,57.617
1568080903.398,93.750,28.809,29.785,-8.789,35.645
1568080903.402,46.387,31.250,29.785,32.227,56.152
1568080903.406,-11.230,33.691,36.133,85.938,-4.883
1568080903.410,15.625,30.273,35.156,58.105,17.578
1568080903.414,77.637,28.809,28.809,-0.488,67.871
1568080903.418,64.453,28.320,30.762,14.648,29.785
1568080903.422,-0.977,24.902,32.227,74.707,49.316
1568080903.425,-6.836,21.973,31.250,77.148,37.109
1568080903.429,59.570,21.973,32.227,14.160,0.977
1568080903.433,74.219,25.879,31.250,0.000,20.020
1568080903.437,6.348,31.738,36.133,62.012,1.953
1568080903.441,-16.602,33.203,38.574,83.496,1.465
1568080903.445,47.363,31.738,33.691,19.043,28.809
1568080903.449,79.102,31.250,28.809,-23.926,56.641
1568080903.453,25.879,30.273,30.273,25.879,66.895
1568080903.457,-18.066,32.227,37.598,80.078,44.922
1568080903.461,23.926,32.715,33.691,30.273,3.418
1568080903.465,76.172,26.367,28.320,-27.344,28.809
1568080903.468,42.480,26.367,33.203,11.719,46.387
1568080903.472,-20.996,28.320,38.086,67.383,42.969
1568080903.476,-2.441,27.832,38.086,47.363,39.551
1568080903.480,72.754,26.367,34.180,-11.230,39.551
1568080903.484,70.312,25.391,28.809,-3.906,48.828
1568080903.488,-0.977,26.855,31.738,65.918,29.297
1568080903.492,-9.766,29.297,34.668,77.637,21.484
1568080903.496,66.895,32.227,25.879,11.230,25.879
1568080903.500,103.516,38.086,26.855,1.465,72.266
1568080903.504,41.504,35.645,32.227,65.918,52.246
1568080903.508,-4.883,32.227,33.203,93.262,59.082
1568080903.511,60.059,32.715,35.156,36.621,73.242
1568080903.515,112.305,27.832,31.250,-5.371,50.293
1568080903.519,52.734,26.367,28.809,40.039,36.621
1568080903.523,-9.277,23.438,28.809,81.055,33.691
1568080903.527,32.227,20.020,28.809,41.016,40.527
1568080903.531,101.074,23.926,30.273,-6.348,42.969
1568080903.535,83.008,31.738,32.715,34.180,14.160
1568080903.539,9.766,36.133,34.668,96.680,10.742
1568080903.543,-1.465,32.715,36.621,68.359,41.016
1568080903.547,63.965,25.391,37.109,2.441,50.293
1568080903.550,72.266,23.438,33.691,5.859,-11.230
1568080903.554,-2.930,27.344,33.203,63.965,-8.301
1568080903.558,-17.090,28.320,34.668,76.660,72.754
1568080903.562,61.035,27.344,33.203,18.555,129.395
1568080903.566,92.285,28.809,36.621,-1.465,106.934
1568080903.570,24.902,28.809,39.062,54.688,65.430
1568080903.574,-26.855,30.762,37.598,88.379,53.223
1568080903.578,39.062,36.133,34.180,39.062,-11.230
1568080903.582,90.332,37.598,26.855,-11.230,-21.973
1568080903.586,24.414,37.598,22.949,22.949,21.484
1568080903.590,-36.133,36.133,26.855,75.684,52.246
1568080903.593,6.348,32.227,26.855,40.039,81.543
1568080903.597,69.824,27.832,23.926,-20.020,35.645
1568080903.601,41.504,23.438,25.391,0.000,17.578
1568080903.605,-30.273,21.973,27.832,54.199,71.777
1568080903.609,-19.531,20.020,29.785,49.805,8.301
1568080903.613,59.082,19.043,26.367,-11.719,-48.828
1568080903.617,68.359,25.879,24.414,-17.090,7.324
1568080903.621,-2.441,28.320,24.414,47.363,-5.371
1568080903.625,-21.484,26.367,26.855,66.895,-25.879
1568080903.629,46.875,30.762,28.320,9.766,34.668
1568080903.633,73.242,32.715,28.320,-16.113,40.039
1568080903.636,11.719,33.691,30.762,31.250,-22.949
1568080903.640,-34.180,34.668,28.809,71.289,-22.949
1568080903.644,16.113,34.668,25.879,25.879,42.480
1568080903.648,70.801,35.645,21.973,-26.855,85.938
1568080903.652,18.555,32.227,22.949,16.602,36.621
1568080903.656,-48.340,27.344,25.879,80.078,29.297
1568080903.660,-11.719,22.949,28.320,51.270,-18.066
1568080903.664,55.176,22.949,33.203,-12.695,2.930
1568080903.668,34.180,25.391,35.156,4.395,81.055
1568080903.672,-36.621,27.344,35.645,66.895,46.387
1568080903.675,-45.898,32.715,39.062,64.941,9.766
1568080903.679,21.484,37.598,34.668,2.441,14.648
1568080903.683,37.109,33.203,27.832,-17.090,29.785
1568080903.687,-31.250,32.227,30.762,42.480,6.836
1568080903.691,-56.152,38.086,28.320,72.266,3.418
1568080903.695,21.973,32.715,32.227,20.508,40.039
1568080903.699,76.660,29.785,40.039,4.395,34.180
1568080903.703,4.395,38.574,38.086,46.875,7.812
1568080903.707,-65.918,41.504,37.598,64.941,69.824
1568080903.711,-19.043,46.387,29.785,12.695,73.730
1568080903.715,49.316,52.246,22.461,-30.273,54.199
1568080903.718,28.809,58.105,20.996,13.184,49.805
1568080903.722,-32.715,64.453,16.113,68.359,63.965
1568080903.726,-13.184,63.477,13.672,54.199,52.734
1568080903.730,56.641,65.430,9.277,-4.883,4.395
1568080903.734,43.945,61.035,6.348,-0.977,-9.766
1568080903.738,-19.043,58.594,14.160,75.195,-30.762
1568080903.742,-19.531,59.082,11.719,83.008,1.953
1568080903.746,51.758,58.105,4.395,11.719,61.035
1568080903.750,75.195,55.176,6.836,-4.395,42.969
1568080903.754,8.789,51.758,15.625,54.199,20.020
1568080903.758,-21.973,52.734,20.508,89.844,45.898
1568080903.761,39.551,52.734,15.625,38.574,100.586
1568080903.765,83.008,50.293,11.719,-7.812,57.617
1568080903.769,29.297,51.758,14.648,38.574,21.484
1568080903.773,-27.832,53.711,20.508,85.938,28.809
1568080903.777,12.695,51.758,20.020,37.109,-15.137
1568080903.781,67.871,48.828,15.625,-20.020,-21.484
1568080903.785,33.691,50.293,16.113,9.766,35.645
1568080903.789,-40.039,44.922,19.043,65.430,78.613
1568080903.793,-32.227,38.086,20.020,53.711,6.348
1568080903.797,58.594,42.480,15.625,-3.906,-63.477
1568080903.800,75.684,48.340,16.113,-1.953,-27.344
1568080903.804,-6.348,48.828,27.344,65.918,31.250
1568080903.808,-31.250,47.852,28.320,83.008,65.918
1568080903.812,40.039,44.922,22.949,20.020,95.215
1568080903.816,71.777,43.457,23.438,-2.441,85.938
1568080903.820,0.000,44.434,25.391,54.199,56.152
1568080903.824,-46.387,45.410,26.855,88.867,15.625
1568080903.828,8.789,46.387,23.926,38.086,15.137
1568080903.832,52.246,42.480,21.484,-7.324,6.836
1568080903.836,-3.418,41.016,26.855,35.156,23.926
1568080903.840,-58.594,41.016,28.809,87.402,75.684
1568080903.843,-18.555,40.039,19.531,49.805,42.480
1568080903.847,50.293,40.039,18.066,-8.789,-15.625
1568080903.851,30.273,41.016,20.996,13.184,-21.973
1568080903.855,-38.574,47.363,20.508,69.824,23.438
1568080903.859,-32.227,42.969,23.438,62.988,74.219
1568080903.863,37.109,33.691,31.250,2.930,33.203
1568080903.867,42.969,33.203,35.156,-4.883,8.301
1568080903.871,-30.273,32.227,31.250,55.176,-0.977
1568080903.875,-57.129,30.762,25.391,69.336,-1.953
1568080903.879,9.766,32.715,23.926,6.348,36.621
1568080903.883,46.875,34.180,25.391,-18.555,21.973
1568080903.886,-11.719,35.645,23.926,32.715,48.340
1568080903.890,-55.176,32.227,18.555,72.754,20.020
1568080903.894,-1.953,30.273,22.461,29.785,35.645
1568080903.898,58.594,35.156,32.227,-9.277,58.594
1568080903.902,20.996,31.250,32.715,26.855,-11.719
1568080903.906,-44.922,29.297,29.297,79.590,6.836
1568080903.910,-16.602,35.645,28.320,56.641,-2.930
1568080903.914,57.617,33.691,28.809,-0.488,-11.230
1568080903.918,55.176,30.273,29.297,10.742,62.500
1568080903.922,-11.230,32.715,31.250,67.871,92.285
1568080903.925,-14.160,27.832,33.691,70.312,70.312
1568080903.929,62.500,29.785,30.273,8.789,63.965
1568080903.933,76.172,32.715,25.391,-1.953,58.594
1568080903.937,13.184,36.621,29.297,61.523,70.312
1568080903.941,-6.348,41.016,28.809,85.938,35.156
1568080903.945,51.270,36.621,25.879,22.949,28.809
1568080903.949,80.078,36.133,29.297,-10.742,3.906
1568080903.953,23.926,42.480,38.574,43.945,-8.789
1568080903.957,-22.949,39.062,42.969,85.938,2.930
1568080903.961,14.160,29.297,34.180,35.645,10.254
1568080903.965,67.383,25.879,26.855,-16.113,34.668
1568080903.968,44.434,26.367,30.762,20.996,14.648
1568080903.972,-5.371,31.738,35.156,73.730,2.930
1568080903.976,8.301,35.645,32.227,49.805,89.844
1568080903.980,70.801,37.598,32.715,-7.324,51.270
1568080903.984,67.871,39.062,34.180,-2.441,27.344
1568080903.988,-6.348,37.598,30.762,54.688,74.219
1568080903.992,-23.926,35.645,25.879,62.988,68.848
1568080903.996,53.711,35.645,21.973,4.395,45.898
1568080904.000,80.078,32.715,22.461,-8.301,1.465
1568080904.004,-0.488,31.250,23.926,49.316,8.789
1568080904.008,-33.203,35.156,26.855,77.637,32.227
1568080904.011,43.945,36.133,30.273,26.367,32.227
1568080904.015,99.121,36.621,32.227,-11.719,59.082
1568080904.019,43.457,40.527,34.180,31.250,44.434
1568080904.023,-20.020,39.551,30.762,77.148,23.438
1568080904.027,17.090,34.180,26.367,39.551,-1.465
1568080904.031,78.125,33.691,26.855,-9.277,8.789
1568080904.035,43.945,38.574,29.785,14.160,61.035
1568080904.039,-30.273,36.133,29.785,66.895,50.781
1568080904.043,-23.438,33.691,23.926,52.246,42.969
1568080904.047,41.016,33.691,29.297,-12.695,-1.953
1568080904.050,41.016,30.273,34.180,-8.301,11.719
1568080904.054,-31.738,31.738,29.297,52.734,84.961
1568080904.058,-45.410,28.809,28.320,64.453,67.871
1568080904.062,25.879,26.367,32.715,8.789,34.180
1568080904.066,50.781,28.809,38.574,-18.066,41.016
1568080904.070,-25.879,25.391,40.527,35.645,24.902
1568080904.074,-65.430,24.414,38.086,73.242,-19.043
1568080904.078,2.441,31.738,38.086,21.484,4.883
1568080904.082,41.016,26.367,39.551,-17.578,64.453
1568080904.086,-12.207,19.043,37.598,30.273,50.781
1568080904.090,-66.406,22.949,30.762,88.867,40.039
1568080904.093,-24.414,28.320,27.344,52.734,48.828
1568080904.097,43.945,31.738,23.926,-6.836,18.066
1568080904.101,19.043,29.785,20.996,13.672,29.297
1568080904.105,-58.105,24.902,25.879,67.871,26.855
1568080904.109,-58.105,25.391,22.461,63.477,32.715
1568080904.113,7.324,26.855,20.996,-2.441,38.086
1568080904.117,15.625,28.320,24.414,-8.789,-32.227
1568080904.121,-45.898,28.809,25.879,56.152,7.812
1568080904.125,-56.641,32.227,27.344,74.219,18.066
1568080904.129,12.695,31.738,28.320,13.672,13.672
1568080904.133,37.598,23.438,30.273,-12.695,45.410
1568080904.136,-26.855,22.949,29.297,41.016,49.316
1568080904.140,-72.754,26.367,33.203,74.219,48.828
1568080904.144,-22.949,25.879,39.551,19.043,45.898
1568080904.148,28.809,24.902,34.180,-25.879,32.715
1568080904.152,-16.113,26.855,31.738,14.648,-0.977
1568080904.156,-74.707,27.832,35.156,61.523,-20.508
1568080904.160,-25.879,31.738,34.180,36.621,-22.461
1568080904.164,55.176,33.691,33.691,-12.207,-12.207
1568080904.168,44.434,31.250,35.645,3.906,49.805
1568080904.172,-21.973,27.832,37.598,62.500,53.223
1568080904.175,-25.391,25.879,38.574,63.477,39.062
1568080904.179,41.016,27.344,34.668,-0.977,52.246
1568080904.183,54.199,30.273,30.762,-8.301,39.551
1568080904.187,-11.230,31.738,27.344,51.270,44.434
1568080904.191,-37.598,25.879,23.926,62.012,49.805
1568080904.195,26.855,24.902,24.902,5.859,51.758
1568080904.199,68.848,29.297,29.297,-18.555,35.156
1568080904.203,21.484,30.762,35.645,29.785,40.527
1568080904.207,-26.855,31.738,40.039,63.965,-16.602
1568080904.211,19.531,29.297,41.992,9.277,43.457
1568080904.215,78.613,27.344,40.527,-39.551,96.191
1568080904.218,41.504,30.273,31.250,0.977,59.570
1568080904.222,-23.926,30.762,29.297,54.688,99.121
1568080904.226,0.000,28.320,31.250,32.227,67.383
1568080904.230,71.289,26.367,33.691,-20.508,90.820
1568080904.234,64.453,25.879,38.086,-6.348,71.289
1568080904.238,-0.488,27.832,41.992,53.223,41.992
1568080904.242,-4.883,31.738,41.016,60.059,74.219
1568080904.246,66.895,32.227,36.133,5.371,2.441
1568080904.250,92.285,35.156,38.574,-6.836,2.930
1568080904.254,24.902,37.109,45.410,52.734,3.418
1568080904.258,-10.254,32.227,48.828,81.055,1.465
1568080904.261,51.270,29.297,43.457,27.344,-29.785
1568080904.265,89.355,22.949,42.969,-8.301,-52.246
1568080904.269,34.180,20.508,53.223,36.133,27.832
1568080904.273,-20.020,24.902,49.316,77.148,55.664
1568080904.277,13.672,24.414,35.645,35.156,39.551
1568080904.281,72.754,29.297,32.715,-16.602,-9.277
1568080904.285,42.480,34.180,33.203,8.301,1.465
1568080904.289,-26.367,29.785,33.691,60.059,18.066
1568080904.293,-8.301,27.344,32.715,49.316,3.418
1568080904.297,64.941,29.297,36.133,-5.859,35.156
1568080904.300,71.289,28.809,43.457,-3.418,-12.695
1568080904.304,-2.441,30.762,43.945,53.711,-14.160
1568080904.308,-24.414,31.250,34.668,62.988,35.645
1568080904.312,49.805,29.785,26.855,1.953,-9.277
1568080904.316,77.637,32.715,23.438,-19.043,34.668
1568080904.320,18.555,36.133,25.391,38.086,65.430
1568080904.324,-14.160,34.668,31.738,78.125,71.289
1568080904.328,47.852,28.809,35.156,30.273,55.176
1568080904.332,108.398,31.738,32.715,-9.277,5.859
1568080904.336,61.035,39.551,34.180,33.203,2.930
1568080904.340,-3.906,37.598,42.969,72.266,11.230
1568080904.343,32.227,37.598,38.574,36.133,44.434
1568080904.347,97.656,41.992,23.926,-10.254,26.855
1568080904.351,70.312,41.016,23.926,11.230,0.000
1568080904.355,-6.836,33.203,27.344,62.500,54.688
1568080904.359,-0.977,29.785,25.879,57.617,45.410
1568080904.363,79.590,29.785,28.320,-3.906,-4.395
1568080904.367,86.914,31.250,33.691,-12.695,-1.465
1568080904.371,15.625,35.645,35.156,51.758,-20.996
1568080904.375,-0.488,38.086,33.691,73.730,18.555
1568080904.379,68.848,38.574,25.879,14.648,84.473
1568080904.383,99.121,36.621,20.508,-5.859,51.270
1568080904.386,32.715,33.691,23.438,53.223,67.383
1568080904.390,-19.043,30.762,30.762,87.891,36.621
1568080904.394,31.250,29.785,34.180,38.574,38.086
1568080904.398,91.309,34.180,31.250,-5.859,59.570
1568080904.402,39.551,34.668,30.762,33.203,20.508
1568080904.406,-25.879,34.180,36.133,84.473,-1.465
1568080904.410,17.578,34.668,34.180,52.246,4.395
1568080904.414,87.891,33.691,27.344,-10.742,-2.441
1568080904.418,62.500,31.738,31.738,4.883,20.020
1568080904.422,-12.207,31.738,36.621,65.430,43.457
1568080904.425,-6.348,28.320,38.086,67.383,83.008
1568080904.429,66.895,20.508,37.109,4.883,68.848
1568080904.433,84.473,24.414,35.645,-4.883,31.738
1568080904.437,7.324,32.715,39.062,53.711,2.441
1568080904.441,-18.066,36.133,42.480,75.684,-3.418
1568080904.445,54.688,37.598,37.598,19.043,-11.230
1568080904.449,90.332,31.250,24.414,-18.066,-18.555
1568080904.453,37.109,32.227,20.020,36.621,2.441
1568080904.457,-1.953,37.109,24.902,85.938,20.996
1568080904.461,55.664,28.320,28.809,53.711,25.391
1568080904.465,107.910,24.902,30.273,9.766,25.391
1568080904.468,47.852,34.668,29.297,20.508,33.203
1568080904.472,-17.578,39.062,29.785,62.012,-9.277
1568080904.476,27.344,35.645,33.203,65.918,-8.789
1568080904.480,114.746,36.621,33.203,28.809,17.578
1568080904.484,122.070,43.457,34.180,45.898,28.809
1568080904.488,61.035,37.598,40.039,118.164,26.855
1568080904.492,43.945,32.715,37.109,115.723,70.312
1568080904.496,104.980,33.203,28.320,39.062,64.941
1568080904.500,139.648,34.668,30.273,34.180,41.992
1568080904.504,72.754,36.621,34.180,94.238,3.418
1568080904.508,22.949,34.180,33.691,110.352,-14.648
1568080904.511,74.707,31.250,30.762,52.734,33.691
1568080904.515,116.699,32.227,33.691,18.555,19.531
1568080904.519,62.500,37.109,39.062,66.895,-47.852
1568080904.523,9.277,37.109,37.598,113.770,-4.883
1568080904.527,41.992,30.762,28.809,70.801,38.574
1568080904.531,85.449,33.203,18.555,13.184,0.000
1568080904.535,43.945,36.133,22.461,39.551,-6.348
1568080904.539,-34.668,32.227,29.297,97.168,11.719
1568080904.543,-40.527,31.250,27.344,83.496,61.523
1568080904.547,17.578,32.227,27.344,20.508,38.086
1568080904.550,9.277,30.273,32.227,18.555,32.227
1568080904.554,-68.848,31.250,36.133,78.125,9.766
1568080904.558,-84.473,30.273,33.203,84.961,-45.898
1568080904.562,-12.207,30.762,24.414,17.578,-13.672
1568080904.566,20.020,33.691,24.414,-2.930,36.133
1568080904.570,-51.270,33.691,33.691,52.734,-0.977
1568080904.574,-93.750,32.227,36.621,84.473,-20.996
1568080904.578,-29.785,32.227,34.180,35.156,52.734
1568080904.582,18.555,31.250,34.180,1.953,68.848
1568080904.586,-26.367,29.297,38.086,45.410,49.805
1568080904.590,-82.031,31.250,41.992,87.891,60.059
1568080904.593,-52.246,29.785,36.621,55.664,19.531
1568080904.597,19.043,25.879,30.273,-4.395,0.488
1568080904.601,-3.418,26.367,28.320,10.742,5.859
1568080904.605,-76.172,26.367,32.715,66.895,0.977
1568080904.609,-66.406,25.391,37.598,61.523,-0.488
1568080904.613,7.812,26.367,37.109,3.418,-3.906
1568080904.617,27.344,31.738,42.969,5.371,-10.254
1568080904.621,-37.109,35.156,45.410,73.242,22.949
1568080904.625,-58.105,33.691,37.109,89.844,58.594
1568080904.629,5.371,31.250,30.273,24.902,78.613
1568080904.633,31.250,32.715,32.227,-2.441,16.602
1568080904.636,-29.297,31.250,35.645,43.457,7.812
1568080904.640,-72.266,25.879,34.668,77.637,63.965
1568080904.644,-16.113,24.902,30.273,32.715,59.082
1568080904.648,35.645,27.344,31.250,-11.719,33.203
1568080904.652,-8.301,30.762,38.086,30.273,28.320
1568080904.656,-59.082,29.297,37.109,83.496,24.414
1568080904.660,-12.207,26.367,31.738,54.688,44.922
1568080904.664,67.383,30.762,30.762,-2.930,60.059
1568080904.668,56.152,30.762,36.133,14.648,30.762
1568080904.672,-1.465,29.297,39.062,73.730,28.809
1568080904.675,-2.441,32.715,35.645,67.383,55.176
1568080904.679,58.105,30.273,31.250,-2.930,24.902
1568080904.683,65.430,27.344,23.926,-14.648,31.738
1568080904.687,-2.441,29.297,23.926,45.410,43.457
1568080904.691,-28.320,30.273,27.832,63.965,39.551
1568080904.695,37.109,27.832,29.297,6.836,-4.395
1568080904.699,74.219,28.320,31.250,-20.020,-25.391
1568080904.703,21.484,29.785,34.668,36.621,11.230
1568080904.707,-19.043,32.227,33.691,76.660,37.109
1568080904.711,27.344,33.203,29.297,27.344,91.797
1568080904.715,85.449,33.691,34.668,-10.742,37.109
1568080904.718,53.711,34.180,38.574,30.273,-8.789
1568080904.722,-12.207,31.250,35.156,84.961,1.953
1568080904.726,4.395,30.273,28.320,62.500,8.301
1568080904.730,68.359,30.273,27.832,0.977,26.855
1568080904.734,54.688,29.297,33.203,11.230,71.777
1568080904.738,-18.066,28.320,35.156,69.336,25.391
1568080904.742,-29.297,29.785,39.062,75.195,-7.324
1568080904.746,41.992,27.344,35.156,11.719,-5.371
1568080904.750,68.359,27.344,31.738,-9.277,3.418
1568080904.754,0.488,34.180,37.598,46.875,61.523
1568080904.758,-36.133,33.203,34.668,70.312,51.758
1568080904.761,42.969,30.273,25.879,10.742,6.348
1568080904.765,114.746,33.691,28.320,-19.531,16.113
1568080904.769,77.148,35.645,34.668,32.715,68.359
1568080904.773,39.062,38.086,39.551,76.660,53.223
1568080904.777,99.121,40.527,41.016,42.480,-19.043
1568080904.781,168.945,33.203,35.156,-8.789,9.277
1568080904.785,123.535,27.344,30.273,12.207,60.547
1568080904.789,48.340,23.926,39.551,82.031,47.363
1568080904.793,61.523,24.902,42.969,82.031,12.695
1568080904.797,109.375,34.180,31.738,-3.906,-5.859
1568080904.800,86.914,40.039,27.344,-21.973,37.598
1568080904.804,20.996,44.434,25.391,41.504,88.867
1568080904.808,16.113,45.898,25.879,55.664,75.195
1568080904.812,89.355,45.410,23.926,4.395,73.242
1568080904.816,107.422,45.898,13.184,-23.926,77.637
1568080904.820,31.738,43.457,8.789,20.020,74.219
1568080904.824,-4.395,42.969,17.090,65.430,63.965
1568080904.828,36.133,38.574,21.973,6.836,39.062
1568080904.832,59.082,38.086,20.020,-42.480,-3.906
1568080904.836,6.348,43.457,21.973,9.766,-10.254
1568080904.840,-41.016,45.898,31.738,56.152,53.711
1568080904.843,5.371,42.480,33.691,24.414,63.477
1568080904.847,67.383,36.133,22.949,-24.902,-23.438
1568080904.851,28.320,35.645,15.625,-8.301,0.488
1568080904.855,-43.457,34.668,19.531,50.781,63.965
1568080904.859,-36.133,33.203,22.949,49.805,10.742
1568080904.863,29.785,33.691,16.602,-12.207,-5.371
1568080904.867,43.945,32.715,19.531,-12.695,12.207
1568080904.871,-18.555,36.621,28.320,47.363,-23.438
1568080904.875,-35.645,40.039,26.367,54.688,8.789
1568080904.879,34.668,38.574,20.020,-6.836,58.594
1568080904.883,65.430,36.621,18.555,-29.297,62.012
1568080904.886,12.207,37.598,27.344,25.879,13.184
1568080904.890,-25.879,36.621,30.762,62.988,3.906
1568080904.894,20.508,34.668,23.926,13.184,45.410
1568080904.898,74.707,34.668,26.855,-22.949,42.969
1568080904.902,24.414,35.156,30.273,20.508,35.645
1568080904.906,-40.039,36.621,28.809,68.359,39.062
1568080904.910,-0.488,35.645,27.344,41.992,35.156
1568080904.914,77.637,34.180,22.949,-11.230,26.855
1568080904.918,71.289,33.691,23.438,4.883,27.832
1568080904.922,-5.859,34.668,26.855,64.941,17.090
1568080904.925,-19.531,34.180,29.297,61.523,45.410
1568080904.929,50.781,36.621,33.203,-1.953,84.473
1568080904.933,55.176,34.180,34.180,-14.648,91.797
1568080904.937,-23.926,30.273,28.320,39.062,41.992
1568080904.941,-45.410,27.832,27.832,61.035,20.020
1568080904.945,10.742,26.855,24.902,6.348,-32.227
1568080904.949,37.109,31.250,26.855,-19.531,-28.320
1568080904.953,-21.484,30.273,35.645,32.227,11.230
1568080904.957,-65.430,30.762,38.574,72.754,11.230
1568080904.961,-13.672,34.180,36.133,32.715,34.180
1568080904.965,39.551,33.691,28.320,-13.672,-1.953
1568080904.968,7.812,32.715,27.344,20.508,0.977
1568080904.972,-45.898,30.762,31.738,70.801,8.301
1568080904.976,-22.949,26.855,28.320,41.504,-9.277
1568080904.980,39.062,25.879,21.973,-20.508,35.156
1568080904.984,33.203,30.273,24.902,-9.766,33.691
1568080904.988,-36.621,32.715,31.738,46.875,20.020
1568080904.992,-43.945,31.738,30.762,49.316,-12.207
1568080904.996,38.574,30.762,20.020,-13.184,-15.137
1568080905.000,63.965,32.715,16.113,-24.414,5.371
1568080905.004,0.488,37.109,21.484,48.340,22.949
1568080905.008,-35.156,35.645,25.391,77.148,28.320
1568080905.011,21.973,31.250,26.855,12.207,6.348
1568080905.015,62.988,29.297,27.344,-18.066,-35.645
1568080905.019,5.371,31.250,31.738,39.062,-22.461
1568080905.023,-42.969,37.109,40.039,82.031,24.414
1568080905.027,2.930,31.250,36.133,37.598,2.930
1568080905.031,63.965,23.438,27.832,-14.160,13.184
1568080905.035,35.645,27.832,27.832,16.113,39.062
1568080905.039,-28.809,31.738,32.715,73.730,71.289
1568080905.043,-11.230,32.227,36.621,58.594,64.941
1568080905.047,59.570,33.203,35.645,-9.277,52.246
1568080905.050,63.965,29.297,38.086,-9.277,39.551
1568080905.054,2.441,27.344,45.410,53.223,13.184
1568080905.058,-2.930,30.762,47.363,65.430,8.789
1568080905.062,79.590,34.180,39.551,6.348,-8.301
1568080905.066,104.980,36.621,34.668,-15.137,-34.180
1568080905.070,41.992,39.551,38.086,44.434,-7.812
1568080905.074,12.207,39.551,40.039,79.590,62.012
1568080905.078,64.453,34.180,35.645,20.996,63.477
1568080905.082,107.910,32.715,31.738,-20.020,-31.738
1568080905.086,62.988,35.156,35.645,29.297,-12.207
1568080905.090,11.719,35.645,39.062,74.707,71.289
1568080905.093,58.105,36.621,31.738,38.574,34.180
1568080905.097,125.488,36.621,26.367,-15.625,18.555
1568080905.101,102.539,34.668,24.902,4.883,54.199
1568080905.105,45.898,35.645,28.809,66.895,67.871
1568080905.109,55.664,39.062,36.621,64.941,84.961
1568080905.113,126.465,37.109,41.504,5.371,25.391
1568080905.117,139.648,35.645,41.016,2.930,79.102
1568080905.121,61.035,36.621,39.551,59.082,108.398
1568080905.125,31.738,37.598,37.109,71.289,-24.414
1568080905.129,100.586,37.598,29.785,11.719,-6.836
1568080905.133,130.371,32.227,28.320,-16.113,43.457
1568080905.136,58.594,26.367,28.320,32.227,15.625
1568080905.140,1.953,23.926,31.250,65.430,44.434
1568080905.144,57.617,23.438,30.273,12.695,65.918
1568080905.148,106.934,21.484,25.879,-32.227,62.012
1568080905.152,53.711,21.484,27.832,11.230,81.055
1568080905.156,-3.906,26.367,27.344,61.035,25.879
1568080905.160,33.203,29.785,30.273,26.367,50.781
1568080905.164,106.934,29.297,34.180,-27.344,58.594
1568080905.168,97.656,32.715,34.180,-4.883,0.000
1568080905.172,31.250,35.156,34.668,54.688,-17.090
1568080905.175,26.367,30.762,30.273,53.223,53.711
1568080905.179,84.473,26.855,23.926,-5.859,48.828
1568080905.183,94.238,30.762,23.438,-13.184,34.180
1568080905.187,27.832,34.180,29.297,46.387,34.668
1568080905.191,-10.254,31.738,34.668,71.777,2.441
1568080905.195,55.176,30.762,35.645,9.277,42.969
1568080905.199,92.773,34.180,41.992,-19.531,41.992
1568080905.203,22.461,36.621,41.504,33.691,37.109
1568080905.207,-24.902,34.668,34.180,72.754,22.949
1568080905.211,22.461,28.320,26.855,30.762,-39.062
1568080905.215,80.566,25.391,22.461,-15.137,-16.113
1568080905.218,52.246,31.250,25.391,16.602,37.598
1568080905.222,-4.395,39.062,27.344,67.383,70.801
1568080905.226,20.508,40.527,22.461,43.457,64.941
1568080905.230,92.285,41.992,23.926,-15.137,24.902
1568080905.234,82.520,41.504,28.809,-4.395,47.363
1568080905.238,4.395,40.039,28.320,49.805,67.871
1568080905.242,-4.395,36.133,26.855,52.734,71.289
1568080905.246,69.336,30.762,25.391,-2.441,24.414
1568080905.250,84.473,31.250,26.367,-12.695,-0.977
1568080905.254,11.719,34.180,26.855,40.527,-0.977
1568080905.258,-18.555,30.762,24.902,65.918,14.648
1568080905.261,48.340,31.250,24.902,13.672,48.828
1568080905.265,93.750,37.109,29.785,-19.531,22.461
1568080905.269,39.551,36.621,32.227,25.879,37.109
1568080905.273,-5.859,32.715,30.762,62.500,68.359
1568080905.277,35.156,27.832,28.320,13.184,49.805
1568080905.281,89.844,25.879,23.438,-42.969,48.828
1568080905.285,69.336,28.320,23.926,-6.348,83.496
1568080905.289,4.395,31.250,29.785,61.035,89.355
1568080905.293,25.391,29.785,36.133,53.223,81.055
1568080905.297,111.816,31.250,38.086,-0.488,26.367
1568080905.300,110.352,32.715,42.480,9.766,37.598
1568080905.304,38.086,32.715,48.340,77.637,53.223
1568080905.308,20.996,37.109,41.016,86.914,2.930
1568080905.312,82.520,32.715,27.832,16.602,15.625
1568080905.316,102.051,30.273,30.273,-0.977,0.488
1568080905.320,28.809,37.109,35.156,51.758,0.488
1568080905.324,-3.418,30.762,29.785,83.008,14.648
1568080905.328,84.473,25.879,28.809,58.594,18.066
1568080905.332,113.770,22.461,34.668,2.930,-23.438
1568080905.336,19.043,14.648,31.738,-0.977,-5.859
1568080905.340,-38.574,17.090,34.668,41.016,76.660
1568080905.343,-5.859,15.625,39.551,5.859,72.754
1568080905.347,51.270,10.742,37.109,-48.828,6.348
1568080905.351,24.902,10.254,39.062,-26.367,-37.598
1568080905.355,-52.246,11.719,39.062,22.949,-30.273
1568080905.359,-48.340,14.648,35.645,16.113,10.254
1568080905.363,20.508,15.137,36.621,-42.480,48.828
1568080905.367,24.902,14.648,41.504,-43.945,16.602
1568080905.371,-37.109,13.672,37.109,20.508,13.672
1568080905.375,-40.527,11.719,31.738,40.039,53.223
1568080905.379,48.340,10.742,29.785,-16.113,34.668
1568080905.383,99.121,13.672,28.809,-39.551,27.832
1568080905.386,47.852,16.602,28.320,16.602,-43.945
1568080905.390,17.090,16.113,25.879,57.617,9.766
1568080905.394,83.984,17.578,26.367,12.207,113.770
1568080905.398,143.555,21.973,29.297,-27.832,55.664
1568080905.402,104.980,25.391,31.250,19.531,10.254
1568080905.406,51.270,29.297,35.156,77.148,33.203
1568080905.410,87.891,26.855,36.621,48.828,31.738
1568080905.414,158.203,21.973,35.156,-5.371,60.059
1568080905.418,136.719,21.973,35.156,13.184,98.633
1568080905.422,58.105,24.902,36.621,71.777,59.570
1568080905.425,57.129,26.855,37.109,71.289,63.477
1568080905.429,129.883,26.855,32.715,13.184,13.672
1568080905.433,139.648,26.855,34.180,9.766,-24.414
1568080905.437,70.312,29.297,41.992,70.801,34.180
1568080905.441,51.758,29.785,40.527,88.867,29.785
1568080905.445,116.211,27.344,33.203,32.227,-1.465
1568080905.449,145.020,25.879,33.203,1.465,11.719
1568080905.453,80.078,31.250,34.668,46.875,27.832
1568080905.457,33.691,33.203,34.668,82.031,41.992
1568080905.461,91.797,26.855,36.621,33.203,102.539
1568080905.465,151.855,26.367,33.691,-15.137,75.195
1568080905.468,113.281,26.367,32.715,20.996,16.602
1568080905.472,47.852,24.414,39.062,71.777,41.504
1568080905.476,59.082,22.949,41.016,49.316,56.641
1568080905.480,119.141,23.926,34.668,-9.277,40.527
1568080905.484,104.492,23.438,32.227,0.000,12.207
1568080905.488,28.320,20.020,31.738,58.594,41.504
1568080905.492,22.949,22.461,32.227,62.500,77.637
1568080905.496,101.074,30.273,30.762,3.418,27.832
1568080905.500,126.465,34.668,31.250,-6.836,-37.598
1568080905.504,56.641,35.645,38.574,54.199,19.531
1568080905.508,17.578,39.551,39.062,75.195,34.180
1568080905.511,71.777,38.086,30.273,18.066,-47.852
1568080905.515,112.305,36.621,24.902,-12.207,5.371
1568080905.519,62.988,36.133,25.391,34.668,59.082
1568080905.523,13.184,30.273,30.762,79.102,53.223
1568080905.527,61.523,16.602,35.156,49.316,33.203
1568080905.531,132.812,12.207,37.109,20.508,-33.691
1568080905.535,97.168,25.879,38.086,44.434,-43.945
1568080905.539,8.789,37.109,35.645,63.965,-13.184
1568080905.543,19.531,41.016,26.855,33.691,13.672
1568080905.547,103.516,41.992,19.531,-8.301,-0.977
1568080905.550,109.863,43.457,19.531,11.719,-5.859
1568080905.554,28.809,45.898,20.508,59.082,46.387
1568080905.558,19.043,48.340,22.461,64.453,19.043
1568080905.562,91.797,45.410,23.926,6.836,-22.949
1568080905.566,101.562,40.039,18.555,-22.461,-25.391
1568080905.570,28.809,34.180,19.531,29.785,-27.832
1568080905.574,-9.277,29.297,24.414,60.547,29.297
1568080905.578,57.617,33.203,24.902,11.230,106.934
1568080905.582,109.863,36.621,25.879,-23.926,86.914
1568080905.586,50.293,35.645,28.320,19.531,-9.277
1568080905.590,-13.184,28.809,28.320,65.918,23.438
1568080905.593,25.879,23.926,24.414,29.297,77.637
1568080905.597,92.285,25.879,23.926,-23.438,60.547
1568080905.601,72.754,29.297,31.250,2.930,24.902
1568080905.605,11.719,36.133,35.156,63.477,16.602
1568080905.609,20.020,36.133,37.598,57.129,-8.301
1568080905.613,87.402,33.203,40.039,-3.906,24.414
1568080905.617,91.309,32.227,35.156,-5.371,90.332
1568080905.621,15.625,29.297,29.785,53.223,50.293
1568080905.625,-9.277,31.738,30.762,70.801,44.922
1568080905.629,57.129,36.133,31.738,18.066,0.488
1568080905.633,86.914,36.621,29.297,-1.953,0.488
1568080905.636,28.320,31.250,29.297,49.316,28.320
1568080905.640,-7.812,27.832,32.715,79.102,11.719
1568080905.644,54.199,28.809,34.668,31.738,11.719
1568080905.648,111.816,28.320,32.227,-12.207,-6.348
1568080905.652,62.012,29.297,28.809,12.207,40.039
1568080905.656,-2.441,27.344,27.832,52.246,42.969
1568080905.660,33.691,22.949,24.902,28.320,61.523
1568080905.664,101.074,24.414,20.996,-23.438,36.133
1568080905.668,76.172,26.855,23.926,-3.906,-21.973
1568080905.672,9.277,28.320,30.762,50.781,51.270
1568080905.675,17.090,26.855,33.203,49.805,61.035
1568080905.679,92.285,27.344,33.691,-1.953,29.785
1568080905.683,112.305,27.344,29.785,-9.277,16.602
1568080905.687,38.574,25.391,30.273,46.387,70.312
1568080905.691,9.277,26.367,34.180,68.359,63.965
1568080905.695,85.449,29.297,32.715,14.648,-7.324
1568080905.699,127.441,29.785,30.762,-15.625,4.395
1568080905.703,59.082,31.250,33.203,35.645,15.625
1568080905.707,-4.395,33.691,41.016,80.566,16.602
1568080905.711,44.922,30.762,43.945,40.527,79.590
1568080905.715,102.051,24.902,33.691,-2.441,51.758
1568080905.718,60.059,22.949,24.902,33.203,22.949
1568080905.722,-3.906,23.438,23.926,77.637,21.484
1568080905.726,22.949,25.391,26.855,49.316,-33.691
1568080905.730,91.797,27.832,27.832,-5.859,-23.438
1568080905.734,78.613,31.250,29.297,-1.465,-40.527
1568080905.738,17.090,35.645,32.227,50.293,36.621
1568080905.742,24.414,39.062,35.156,60.059,109.863
1568080905.746,96.191,42.480,30.273,3.906,43.945
1568080905.750,114.258,40.039,28.809,0.488,18.555
1568080905.754,54.688,33.691,33.691,73.730,7.812
1568080905.758,8.789,38.086,30.273,83.496,10.742
1568080905.761,38.086,44.434,21.484,-7.324,-11.719
1568080905.765,74.219,37.109,18.066,-40.039,26.855
1568080905.769,25.879,32.715,21.973,13.672,-0.488
1568080905.773,-40.527,34.668,23.926,33.691,-15.137
1568080905.777,4.395,33.203,22.949,-2.930,27.832
1568080905.781,48.828,25.879,14.648,-61.035,-5.371
1568080905.785,9.766,21.484,12.207,-35.645,-14.160
1568080905.789,-44.434,30.273,20.508,29.297,0.488
1568080905.793,-28.809,32.715,20.508,10.254,75.684
1568080905.797,56.641,32.227,20.508,-35.645,59.082
1568080905.800,58.105,31.250,27.832,-27.344,-4.395
1568080905.804,-19.043,27.832,33.691,28.320,-14.160
1568080905.808,-25.391,30.273,34.180,45.898,-26.855
1568080905.812,54.688,26.855,32.227,0.488,-41.992
1568080905.816,80.566,23.438,25.391,-15.137,4.395
1568080905.820,11.719,28.320,23.438,37.598,43.945
1568080905.824,-25.879,27.832,24.414,68.359,8.301
1568080905.828,36.621,26.367,18.555,18.555,8.301
1568080905.832,87.402,28.320,19.531,-13.184,4.883
1568080905.836,34.180,28.320,25.391,25.391,7.812
1568080905.840,-19.043,26.367,29.297,64.941,42.480
1568080905.843,28.320,25.879,33.203,38.086,90.332
1568080905.847,88.867,24.902,28.320,-12.207,65.430
1568080905.851,66.895,28.809,26.367,10.254,9.277
1568080905.855,10.254,30.762,32.715,70.801,47.852
1568080905.859,22.949,28.809,32.715,63.965,-0.977
1568080905.863,92.773,28.320,25.879,9.766,-36.621
1568080905.867,85.449,24.902,22.461,10.254,14.160
1568080905.871,16.113,21.484,21.973,57.129,11.719
1568080905.875,-0.488,20.508,26.855,64.941,9.277
1568080905.879,65.430,24.414,37.109,12.695,55.176
1568080905.883,101.074,30.762,39.062,-5.371,30.762
1568080905.886,35.645,29.785,35.156,49.805,-22.949
1568080905.890,-8.789,23.438,32.227,80.566,16.113
1568080905.894,42.969,25.879,25.391,30.762,57.129
1568080905.898,94.727,28.809,23.926,-6.348,33.691
1568080905.902,51.758,29.785,26.855,26.367,22.461
1568080905.906,-3.418,37.109,27.832,65.430,12.695
1568080905.910,38.086,36.133,26.367,39.551,42.969
1568080905.914,105.469,30.273,23.438,-8.789,59.082
1568080905.918,88.379,32.227,28.320,12.695,89.355
1568080905.922,24.902,39.551,34.668,66.406,120.117
1568080905.925,22.461,39.551,26.855,54.688,76.660
1568080905.929,89.844,34.180,21.484,0.488,28.809
1568080905.933,103.516,38.574,24.902,-3.418,12.207
1568080905.937,29.297,43.945,26.855,45.410,15.137
1568080905.941,0.488,39.551,27.344,63.477,30.273
1568080905.945,70.312,36.621,26.855,14.160,30.273
1568080905.949,112.305,37.109,24.414,-5.859,2.930
1568080905.953,55.664,32.715,27.832,42.969,-1.953
1568080905.957,6.836,26.855,31.738,77.637,57.617
1568080905.961,49.316,26.367,24.414,37.109,55.664
1568080905.965,102.539,27.344,21.484,-4.883,-1.953
1568080905.968,67.871,29.785,30.762,24.902,18.066
1568080905.972,-0.977,31.738,36.621,71.289,5.371
1568080905.976,16.602,31.250,34.180,50.781,30.762
1568080905.980,82.520,31.738,31.250,-2.930,10.254
1568080905.984,67.871,35.156,31.738,8.301,25.879
1568080905.988,-5.859,36.133,31.250,57.617,22.949
1568080905.992,-13.672,31.250,29.297,56.641,-26.855
1568080905.996,65.918,29.297,32.715,2.930,-16.113
1568080906.000,82.520,31.250,31.738,0.488,68.848
1568080906.004,8.789,28.320,29.785,53.711,28.809
1568080906.008,-19.043,25.391,30.762,71.289,-76.172
1568080906.011,43.945,23.926,28.320,20.996,-44.922
1568080906.015,83.984,23.438,27.344,-10.254,60.547
1568080906.019,31.738,24.414,31.250,37.109,78.613
1568080906.023,-10.742,23.926,32.227,71.289,75.195
1568080906.027,37.598,22.949,27.832,27.832,103.516
1568080906.031,97.656,26.367,23.926,-13.184,52.246
1568080906.035,67.383,28.320,24.414,17.090,0.977
1568080906.039,2.441,27.832,33.203,64.941,11.230
1568080906.043,19.531,30.762,35.156,48.340,31.250
1568080906.047,90.332,32.715,24.902,-0.488,45.898
1568080906.050,87.402,27.344,23.438,3.906,53.711
1568080906.054,17.578,27.344,33.203,55.176,62.012
1568080906.058,9.766,30.762,35.156,64.453,61.035
1568080906.062,74.219,27.832,25.391,7.812,35.645
1568080906.066,92.285,24.414,22.461,-5.371,58.105
1568080906.070,19.531,22.461,23.926,45.410,33.203
1568080906.074,-21.484,22.949,22.461,66.895,2.441
1568080906.078,51.758,24.902,25.879,18.555,9.277
1568080906.082,99.121,28.320,27.832,-16.602,30.273
1568080906.086,41.504,27.832,32.227,26.855,24.902
1568080906.090,-6.836,28.809,35.645,71.777,24.902
1568080906.093,37.109,28.809,24.902,39.062,11.719
1568080906.097,100.586,25.391,19.531,-8.789,-15.137
1568080906.101,78.125,27.344,23.926,11.719,41.504
1568080906.105,7.812,30.273,27.832,63.477,119.629
1568080906.109,11.719,27.832,28.320,55.176,108.398
1568080906.113,84.961,28.809,27.344,5.859,86.914
1568080906.117,93.750,33.691,32.227,7.324,43.945
1568080906.121,29.785,32.715,37.598,53.711,26.367
1568080906.125,13.184,28.320,40.527,63.477,30.273
1568080906.129,79.102,26.855,33.203,9.277,12.695
1568080906.133,110.840,26.855,25.391,-8.789,16.113
1568080906.136,48.340,27.344,27.832,40.527,23.926
1568080906.140,12.207,31.250,29.297,71.289,-8.301
1568080906.144,71.289,32.227,27.832,24.902,-20.996
1568080906.148,119.141,35.156,22.461,-13.672,-2.441
1568080906.152,72.266,38.574,22.461,20.020,23.926
1568080906.156,9.277,33.203,30.762,61.035,30.762
1568080906.160,50.293,31.250,30.273,49.805,-19.531
1568080906.164,136.719,36.621,24.902,28.809,-63.477
1568080906.168,101.074,24.414,31.738,30.762,-25.879
1568080906.172,0.000,14.160,36.621,49.805,-27.344
1568080906.175,17.578,16.602,35.645,60.547,-27.832
1568080906.179,103.516,13.184,37.109,24.414,24.414
1568080906.183,113.770,13.672,35.645,17.578,-24.902
1568080906.187,58.594,18.066,35.156,78.613,-50.781
1568080906.191,31.250,23.438,37.109,96.191,13.672
1568080906.195,82.520,21.484,29.785,36.133,70.801
1568080906.199,127.441,19.043,23.926,22.461,79.102
1568080906.203,71.289,24.414,23.926,68.848,62.012
1568080906.207,28.320,22.949,22.949,102.539,46.875
1568080906.211,79.102,20.020,27.832,67.383,65.430
1568080906.215,128.418,20.020,29.785,27.832,29.785
1568080906.218,88.867,21.484,28.320,58.105,41.016
1568080906.222,33.691,24.902,32.227,103.027,28.320
1568080906.226,60.547,23.926,33.203,86.914,-3.906
1568080906.230,122.559,18.555,24.902,34.668,36.621
1568080906.234,110.352,17.090,18.555,43.945,39.551
1568080906.238,40.527,17.578,19.043,91.797,30.273
1568080906.242,28.809,16.602,17.090,84.961,39.551
1568080906.246,96.191,20.996,14.648,29.297,75.195
1568080906.250,120.117,28.320,18.066,19.531,28.809
1568080906.254,50.781,25.879,21.484,65.430,-6.836
1568080906.258,17.578,23.438,25.879,83.984,53.223
1568080906.261,81.055,25.391,25.391,38.574,59.082
1568080906.265,111.328,24.902,17.090,9.766,61.035
1568080906.269,57.617,29.297,13.672,51.758,51.758
1568080906.273,16.113,31.738,17.090,85.449,74.219
1568080906.277,52.734,29.785,12.695,46.875,5.371
1568080906.281,100.098,30.762,9.277,3.906,-41.992
1568080906.285,69.824,27.832,15.137,27.832,49.316
1568080906.289,17.090,27.832,21.973,81.543,48.340
1568080906.293,39.551,35.645,21.973,67.383,29.297
1568080906.297,93.750,36.621,13.184,12.695,69.824
1568080906.300,86.426,31.250,8.789,15.625,52.246
1568080906.304,27.832,28.320,14.648,64.941,20.508
1568080906.308,18.066,28.320,19.531,71.289,12.695
1568080906.312,78.613,26.855,14.160,21.973,20.996
1568080906.316,99.609,29.785,17.578,9.277,29.785
1568080906.320,45.410,31.738,26.367,62.500,9.766
1568080906.324,14.648,33.691,20.996,86.426,8.301
1568080906.328,62.988,34.668,12.207,34.668,34.668
1568080906.332,98.633,32.715,13.184,4.883,43.457
1568080906.336,46.875,33.691,19.043,44.434,114.746
1568080906.340,-6.836,37.109,23.926,79.102,99.609
1568080906.343,30.273,36.133,22.949,48.828,-28.320
1568080906.347,91.797,33.203,21.973,4.883,1.953
1568080906.351,57.129,35.645,23.438,20.996,32.227
1568080906.355,-11.719,33.203,22.949,66.406,29.785
1568080906.359,3.906,29.297,21.484,59.082,64.453
1568080906.363,66.406,30.273,18.555,4.883,57.617
1568080906.367,65.918,32.227,24.902,7.324,32.715
1568080906.371,11.230,33.691,29.297,60.547,69.336
1568080906.375,-2.930,34.668,27.344,60.547,20.996
1568080906.379,58.594,31.250,26.855,6.836,-28.320
1568080906.383,91.309,28.320,27.344,-4.395,11.719
1568080906.386,37.109,32.715,24.902,42.480,6.348
1568080906.390,6.836,37.109,24.902,70.801,20.020
1568080906.394,62.988,35.156,23.926,30.762,33.203
1568080906.398,108.398,33.203,24.414,-2.441,-2.930
1568080906.402,64.941,34.668,27.344,31.738,24.902
1568080906.406,21.484,36.133,25.391,74.219,37.109
1568080906.410,51.758,35.156,29.785,49.805,26.855
1568080906.414,98.145,35.156,28.809,-2.441,37.109
1568080906.418,75.684,31.738,26.855,6.836,13.672
1568080906.422,15.625,24.414,30.762,49.805,62.500
1568080906.425,15.625,22.949,31.738,45.410,113.770
1568080906.429,73.242,24.414,30.273,-3.906,27.344
1568080906.433,81.055,26.367,28.320,-7.812,10.742
1568080906.437,18.066,28.320,27.344,42.969,67.383
1568080906.441,-1.953,28.809,33.691,61.035,62.012
1568080906.445,56.641,23.438,32.715,11.719,45.898
1568080906.449,76.660,22.461,29.785,-14.160,4.883
1568080906.453,21.973,30.273,37.109,29.297,5.859
1568080906.457,-14.648,29.297,39.062,58.105,26.367
1568080906.461,29.297,26.367,36.133,18.555,-6.348
1568080906.465,83.984,31.738,35.156,-15.625,-0.488
1568080906.468,44.922,33.691,39.062,18.555,15.625
1568080906.472,-12.695,30.273,42.969,61.523,-0.977
1568080906.476,11.719,24.902,35.645,36.133,41.992
1568080906.480,68.848,22.461,26.855,-10.742,81.055
1568080906.484,58.594,23.438,28.809,5.371,36.133
1568080906.488,0.488,24.414,37.109,55.176,37.598
1568080906.492,2.930,24.414,37.598,58.594,59.082
1568080906.496,69.824,24.902,32.227,6.348,36.621
1568080906.500,84.961,25.879,34.180,-5.371,24.902
1568080906.504,20.508,28.809,41.504,46.387,21.973
1568080906.508,-7.812,28.320,44.434,72.754,9.766
1568080906.511,43.457,25.879,41.504,23.926,-9.766
1568080906.515,69.336,22.949,43.945,-1.953,-30.273
1568080906.519,19.531,21.973,46.875,42.480,6.348
1568080906.523,-23.926,21.484,44.434,72.266,-0.977
1568080906.527,16.602,21.484,44.434,29.785,-3.418
1568080906.531,67.383,25.391,42.480,-13.184,15.625
1568080906.535,29.785,28.809,41.016,13.184,37.109
1568080906.539,-18.555,29.297,42.480,58.594,11.230
1568080906.543,5.859,27.344,42.480,39.062,10.742
1568080906.547,58.105,26.855,36.133,-15.625,58.105
1568080906.550,41.992,25.391,35.156,-13.184,73.242
1568080906.554,-26.855,25.391,44.922,33.691,57.129
1568080906.558,-34.668,24.902,44.922,39.551,29.785
1568080906.562,26.367,24.414,37.598,-8.789,23.926
1568080906.566,46.875,25.879,41.016,-16.602,11.719
1568080906.570,-4.395,26.367,46.875,37.109,23.438
1568080906.574,-29.785,29.297,45.898,62.500,79.590
1568080906.578,19.043,33.691,44.434,20.996,86.426
1568080906.582,54.688,34.180,44.922,-5.371,54.199
1568080906.586,2.930,28.320,44.922,32.715,79.590
1568080906.590,-43.945,21.973,46.875,64.941,92.773
1568080906.593,-8.789,25.391,44.434,32.227,42.969
1568080906.597,41.504,31.250,41.992,-6.348,34.668
1568080906.601,13.184,29.297,41.016,14.160,57.129
1568080906.605,-42.480,29.785,39.062,62.500,17.090
1568080906.609,-21.973,31.738,38.574,48.828,-2.441
1568080906.613,42.480,29.297,36.621,-1.953,27.344
1568080906.617,50.293,30.762,36.621,0.000,14.160
1568080906.621,-7.812,34.180,36.133,44.434,-6.348
1568080906.625,-28.809,35.645,35.156,51.270,-4.883
1568080906.629,31.250,38.086,37.109,0.977,40.527
1568080906.633,60.059,39.062,41.504,-11.230,7.812
1568080906.636,0.000,36.621,40.527,42.480,-47.363
1568080906.640,-43.945,33.203,40.039,70.312,-20.508
1568080906.644,5.371,33.203,40.039,20.996,-47.852
1568080906.648,55.664,38.086,39.551,-13.672,-35.645
1568080906.652,31.738,46.387,37.598,30.762,36.133
1568080906.656,4.395,46.387,41.992,94.727,35.645
1568080906.660,27.344,36.133,50.781,63.965,20.996
1568080906.664,59.570,31.738,51.270,-8.789,53.711
1568080906.668,30.762,24.902,55.176,3.418,42.969
1568080906.672,-30.762,16.602,59.082,57.129,20.996
1568080906.675,-25.879,16.602,56.152,44.922,-9.766
1568080906.679,43.945,13.672,53.223,1.465,-7.324
1568080906.683,53.711,8.789,62.988,8.789,65.918
1568080906.687,-24.414,8.301,71.777,42.969,45.410
1568080906.691,-44.434,8.301,67.871,60.547,-24.414
1568080906.695,6.836,7.324,64.941,5.859,-1.465
1568080906.699,29.785,7.324,68.359,-14.648,47.363
1568080906.703,-18.066,7.324,65.918,45.410,63.477
1568080906.707,-52.734,7.812,61.035,75.195,78.613
1568080906.711,6.348,5.371,64.941,41.992,36.621
1568080906.715,52.246,8.301,65.430,7.324,-15.625
1568080906.718,11.230,12.207,59.570,35.156,4.395
1568080906.722,-33.203,9.277,58.105,84.473,46.875
1568080906.726,0.000,11.230,58.594,64.941,47.363
1568080906.730,52.246,17.578,63.477,16.113,37.109
1568080906.734,31.250,21.484,65.430,25.879,0.488
1568080906.738,-24.902,19.043,55.176,71.777,-4.395
1568080906.742,-19.043,17.090,49.805,69.336,61.035
1568080906.746,40.527,13.184,51.758,13.672,55.176
1568080906.750,50.293,15.137,47.852,11.719,13.672
1568080906.754,0.000,21.484,48.340,65.918,26.855
1568080906.758,-15.625,23.438,51.758,81.055,17.578
1568080906.761,42.969,25.391,47.852,28.320,15.625
1568080906.765,78.125,25.879,47.363,11.230,12.207
1568080906.769,29.297,28.809,53.711,61.523,35.156
1568080906.773,-7.812,28.320,55.176,90.332,28.320
1568080906.777,28.809,21.484,46.387,44.434,44.922
1568080906.781,57.617,21.484,36.621,-0.977,100.586
1568080906.785,22.949,29.297,38.086,26.367,80.566
1568080906.789,-21.973,29.785,46.875,70.801,44.434
1568080906.793,-0.488,27.832,48.340,54.199,20.508
1568080906.797,54.688,29.297,40.527,-0.488,31.250
1568080906.800,44.922,28.809,41.504,6.836,37.109
1568080906.804,-9.277,28.809,42.480,62.500,-6.348
1568080906.808,-8.301,27.344,40.039,70.801,11.230
1568080906.812,53.711,26.367,39.062,18.555,22.949
1568080906.816,72.266,28.320,39.062,3.906,18.066
1568080906.820,18.555,26.367,44.922,52.246,9.766
1568080906.824,-3.418,23.926,44.434,69.336,4.395
1568080906.828,51.758,22.949,39.062,21.973,-10.254
1568080906.832,91.309,25.879,38.086,-4.883,-9.766
1568080906.836,54.688,28.320,43.945,38.086,41.016
1568080906.840,16.113,26.855,46.387,74.219,58.105
1568080906.843,52.734,21.484,44.922,42.969,22.949
1568080906.847,99.121,22.949,39.551,-1.465,-23.438
1568080906.851,66.406,25.879,35.156,17.090,19.531
1568080906.855,16.602,23.438,39.062,64.941,73.730
1568080906.859,39.062,27.344,36.133,52.246,46.387
1568080906.863,93.262,26.367,29.297,-5.859,27.832
1568080906.867,84.961,21.973,33.691,-4.883,47.363
1568080906.871,28.320,30.762,40.527,48.340,28.809
1568080906.875,18.066,27.344,43.945,62.500,-8.789
1568080906.879,87.402,16.113,38.574,23.438,-31.738
1568080906.883,110.352,26.367,26.855,5.859,18.555
1568080906.886,35.156,36.133,21.484,28.809,28.320
1568080906.890,0.977,36.133,20.508,48.340,31.738
1568080906.894,59.082,45.410,18.066,7.812,80.566
1568080906.898,93.750,52.734,12.695,-33.203,75.195
1568080906.902,59.082,57.129,10.742,10.254,53.223
1568080906.906,23.926,67.383,7.812,59.570,25.391
1568080906.910,49.316,68.848,-0.488,20.996,10.742
1568080906.914,95.703,66.895,-2.441,-28.809,-7.324
1568080906.918,76.172,65.918,2.930,5.371,-11.230
1568080906.922,29.297,64.453,5.371,65.430,13.672
1568080906.925,26.855,62.012,2.930,50.781,48.340
1568080906.929,68.848,60.547,0.977,-2.930,92.773
1568080906.933,73.730,60.547,2.441,1.465,76.660
1568080906.937,18.066,57.129,8.789,52.734,26.855
1568080906.941,5.859,56.152,12.207,64.941,43.945
1568080906.945,62.012,56.641,10.742,17.578,-2.930
1568080906.949,88.867,54.199,16.113,-2.441,-42.969
1568080906.953,39.551,53.711,24.414,47.852,2.441
1568080906.957,0.000,51.758,20.020,74.219,68.848
1568080906.961,44.922,47.363,9.766,25.391,27.344
1568080906.965,83.496,46.387,9.766,-7.324,-13.672
1568080906.968,44.922,50.781,14.160,29.297,25.391
1568080906.972,0.488,53.223,13.184,73.242,55.176
1568080906.976,31.250,54.688,11.719,45.898,3.906
1568080906.980,92.773,50.781,17.578,-4.395,-12.207
1568080906.984,74.707,43.945,23.438,16.113,1.465
1568080906.988,7.324,43.457,27.344,65.918,-4.395
1568080906.992,5.371,43.457,31.738,59.082,8.789
1568080906.996,65.918,38.086,27.832,5.859,19.531
1568080907.000,72.754,34.668,21.484,-4.883,94.238
1568080907.004,9.277,33.691,23.926,43.945,106.445
1568080907.008,-18.066,29.785,25.879,65.430,30.273
1568080907.011,50.293,32.715,24.902,19.043,-9.277
1568080907.015,88.379,38.574,26.855,-4.395,27.832
1568080907.019,33.203,37.598,28.320,33.691,40.039
1568080907.023,-1.953,35.156,29.297,67.383,12.207
1568080907.027,41.992,37.598,30.273,28.320,-3.418
1568080907.031,80.566,39.551,25.391,-11.719,28.809
1568080907.035,40.039,38.574,25.391,23.438,72.266
1568080907.039,-21.973,33.691,29.785,65.430,26.855
1568080907.043,-6.836,33.203,31.250,41.992,20.996
1568080907.047,54.688,34.668,32.715,-10.254,52.246
1568080907.050,47.852,30.762,32.227,-4.883,71.777
1568080907.054,-10.254,29.297,30.762,45.410,79.102
1568080907.058,0.977,29.785,31.738,49.805,54.199
1568080907.062,65.918,32.715,31.250,2.441,21.484
1568080907.066,75.684,31.738,33.203,-5.859,-5.859
1568080907.070,27.344,33.203,36.621,47.363,71.289
1568080907.074,0.488,37.598,30.762,69.824,89.844
1568080907.078,42.480,34.180,22.949,15.625,26.855
1568080907.082,79.102,36.133,18.066,-13.672,27.344
1568080907.086,43.457,43.457,24.902,33.203,8.301
1568080907.090,1.465,39.551,31.250,67.383,0.977
1568080907.093,35.645,33.691,27.344,28.320,24.902
1568080907.097,92.773,40.527,14.160,-4.883,33.691
1568080907.101,87.402,42.480,17.578,49.805,27.344
1568080907.105,34.668,32.227,38.574,94.238,9.766
1568080907.109,18.555,25.879,47.363,46.875,28.320
1568080907.113,62.500,19.043,49.316,-11.230,46.387
1568080907.117,67.383,5.371,51.758,2.930,20.508
1568080907.121,14.648,0.488,55.664,57.617,25.391
1568080907.125,16.602,2.441,62.500,73.242,9.277
1568080907.129,75.684,0.000,67.871,25.879,-2.930
1568080907.133,81.055,-3.906,70.312,-2.441,8.301
1568080907.136,20.996,0.488,74.707,43.945,-19.043
1568080907.140,-10.742,0.977,73.242,78.125,35.156
1568080907.144,45.898,-4.395,67.383,38.574,71.289
1568080907.148,84.473,-3.906,66.406,8.789,52.734
1568080907.152,38.086,-1.465,69.336,45.410,56.152
1568080907.156,-4.883,0.488,72.266,88.379,62.988
1568080907.160,27.344,3.418,72.266,64.941,79.102
1568080907.164,73.730,3.418,64.941,18.555,62.500
1568080907.168,42.480,2.930,59.570,40.527,24.414
1568080907.172,-13.184,3.418,55.664,84.961,48.828
1568080907.175,1.953,5.371,52.246,68.848,48.340
1568080907.179,67.871,9.766,50.781,15.625,-9.766
1568080907.183,63.965,10.742,50.781,5.371,-10.254
1568080907.187,-0.488,13.672,52.734,53.223,4.883
1568080907.191,-4.883,17.090,49.805,63.965,-4.883
1568080907.195,59.570,12.695,45.898,4.883,23.438
1568080907.199,80.078,12.207,48.340,-15.625,-13.184
1568080907.203,25.879,17.090,48.828,32.227,-43.457
1568080907.207,-0.488,14.648,43.457,62.500,51.758
1568080907.211,46.875,15.625,36.621,18.555,17.578
1568080907.215,92.773,16.113,34.668,-16.113,-42.480
1568080907.218,67.383,18.555,37.598,23.926,-17.090
1568080907.222,25.391,21.973,40.527,72.754,1.465
1568080907.226,55.176,17.578,40.527,44.434,40.039
1568080907.230,111.816,19.531,41.504,-3.906,97.656
1568080907.234,86.914,20.508,41.016,15.137,66.895
1568080907.238,21.973,22.949,38.574,66.895,14.160
1568080907.242,26.855,23.926,35.645,63.965,32.715
1568080907.246,86.426,23.438,34.668,10.254,44.434
1568080907.250,99.609,23.926,33.203,2.930,23.438
1568080907.254,51.270,25.391,31.250,49.805,-36.621
1568080907.258,31.738,28.320,32.227,62.988,27.344
1568080907.261,85.449,25.879,32.227,13.184,67.383
1568080907.265,111.816,22.461,28.320,-9.766,47.852
1568080907.269,58.105,21.973,29.297,32.715,46.875
1568080907.273,22.461,20.996,37.109,65.918,49.805
1568080907.277,70.312,20.996,35.156,23.438,73.730
1568080907.281,114.746,22.461,25.879,-19.043,36.621
1568080907.285,79.102,26.855,21.484,14.160,30.762
1568080907.289,32.715,28.320,20.508,52.246,68.359
1568080907.293,60.059,25.391,20.996,25.391,41.992
1568080907.297,110.840,28.809,20.508,-18.555,-23.438
1568080907.300,91.797,31.738,22.461,-2.441,5.371
1568080907.304,35.645,28.809,27.832,52.734,64.941
1568080907.308,36.621,31.250,33.203,58.105,70.312
1568080907.312,92.285,30.762,35.156,7.324,23.926
1568080907.316,102.051,30.273,32.715,-3.418,19.531
1568080907.320,39.062,30.762,24.902,36.621,77.148
1568080907.324,9.766,24.902,24.902,51.270,49.316
1568080907.328,71.289,25.391,28.320,5.371,-6.348
1568080907.332,109.375,29.297,28.809,-17.090,-36.133
1568080907.336,61.523,27.832,36.133,35.156,-27.344
1568080907.340,30.273,31.738,40.527,81.543,6.836
1568080907.343,75.195,41.992,36.621,40.039,-3.418
1568080907.347,106.445,41.504,30.273,-21.484,21.484
1568080907.351,69.336,37.109,27.832,4.883,81.543
1568080907.355,24.902,43.457,29.297,55.176,52.734
1568080907.359,39.062,43.457,27.832,30.762,7.812
1568080907.363,95.703,35.645,22.949,-21.484,27.832
1568080907.367,91.797,36.133,22.949,-12.207,30.273
1568080907.371,31.738,39.062,27.832,40.039,56.641
1568080907.375,29.297,35.156,30.273,49.805,62.012
1568080907.379,91.797,29.785,30.273,5.371,10.742
1568080907.383,105.957,32.715,32.715,-5.859,60.059
1568080907.386,47.363,38.086,36.133,39.551,114.258
1568080907.390,20.996,33.203,36.133,64.941,74.707
1568080907.394,68.359,27.832,28.320,18.555,64.453
1568080907.398,103.027,32.715,24.902,-10.254,73.242
1568080907.402,60.547,32.715,32.227,34.180,87.891
1568080907.406,17.090,31.250,36.133,70.312,57.617
1568080907.410,53.711,33.691,31.738,37.598,39.062
1568080907.414,109.375,32.227,29.785,-4.883,29.297
1568080907.418,80.078,26.855,32.227,15.137,21.484
1568080907.422,18.066,24.414,30.762,63.965,15.625
1568080907.425,34.668,27.344,30.273,51.758,49.805
1568080907.429,100.098,28.320,27.832,-6.836,85.449
1568080907.433,104.004,26.367,25.879,-9.766,39.551
1568080907.437,51.758,27.832,28.809,45.410,11.230
1568080907.441,42.969,29.297,26.855,58.105,34.668
1568080907.445,103.516,34.180,24.414,3.906,23.926
1568080907.449,126.953,44.434,28.320,-15.137,-3.418
1568080907.453,72.754,47.852,33.691,26.855,-45.898
1568080907.457,32.715,41.504,34.668,50.293,-51.270
1568080907.461,75.684,35.645,30.762,9.766,1.465
1568080907.465,111.328,31.250,22.949,-27.344,19.531
1568080907.468,65.918,31.738,24.414,8.789,45.898
1568080907.472,19.043,33.203,30.273,55.664,61.035
1568080907.476,47.363,27.832,27.832,24.902,19.531
1568080907.480,106.934,22.461,25.391,-24.902,8.301
1568080907.484,88.379,25.391,31.738,-4.883,21.484
1568080907.488,26.367,28.809,35.645,48.828,2.441
1568080907.492,29.297,30.273,35.645,44.922,12.695
1568080907.496,87.891,30.762,34.668,-12.207,8.789
1568080907.500,96.191,28.809,30.762,-15.625,-1.465
1568080907.504,33.691,30.273,30.273,38.086,1.465
1568080907.508,11.230,36.133,26.855,46.875,-17.090
1568080907.511,70.801,36.621,23.926,-6.836,-5.371
1568080907.515,95.703,36.133,22.461,-33.203,34.180
1568080907.519,46.387,33.203,23.438,10.254,33.203
1568080907.523,7.324,30.762,25.879,45.410,84.473
1568080907.527,40.039,31.250,20.508,3.418,80.078
1568080907.531,83.008,28.809,17.578,-33.203,1.953
1568080907.535,51.758,28.320,19.531,3.418,17.578
1568080907.539,4.883,31.250,21.973,52.246,52.734
1568080907.543,30.273,31.738,27.832,25.391,47.363
1568080907.547,85.449,30.762,29.785,-22.461,-0.488
1568080907.550,77.637,32.227,29.785,3.418,-28.320
1568080907.554,22.949,34.668,30.273,57.129,45.898
1568080907.558,22.461,33.691,33.691,61.523,96.191
1568080907.562,79.590,29.297,29.297,13.184,34.180
1568080907.566,78.125,28.809,22.461,0.000,-14.648
1568080907.570,13.672,30.762,24.414,45.410,-4.883
1568080907.574,-8.789,28.320,28.320,62.500,50.293
1568080907.578,49.316,25.879,31.738,16.602,42.480
1568080907.582,80.078,26.855,31.250,-10.254,37.109
1568080907.586,32.227,29.785,26.855,31.250,120.117
1568080907.590,-2.930,30.273,27.344,63.477,82.520
1568080907.593,33.203,30.762,25.391,20.508,8.789
1568080907.597,71.289,28.809,26.367,-13.672,38.086
1568080907.601,29.785,24.902,30.273,14.160,13.672
1568080907.605,-29.297,27.832,26.367,54.688,37.109
1568080907.609,-13.184,34.180,24.902,39.551,64.941
1568080907.613,41.504,35.156,21.484,-3.906,43.945
1568080907.617,27.344,34.668,17.090,6.836,41.992
1568080907.621,-28.809,34.180,20.996,58.105,6.836
1568080907.625,-25.879,32.715,23.438,61.523,9.766
1568080907.629,30.762,30.273,19.043,3.906,34.668
1568080907.633,49.316,31.738,21.973,-12.207,-3.418
1568080907.636,-0.488,31.250,30.762,33.203,-2.441
1568080907.640,-37.109,27.832,31.250,49.316,36.133
1568080907.644,4.395,27.832,25.879,3.418,47.852
1568080907.648,42.480,31.250,22.461,-20.508,-17.090
1568080907.652,0.488,38.086,26.855,19.043,-54.199
1568080907.656,-38.086,38.086,27.344,57.129,28.809
1568080907.660,5.371,33.691,23.438,25.879,18.066
1568080907.664,50.293,33.691,28.320,-14.160,-41.992
1568080907.668,27.344,36.133,34.668,8.789,-8.789
1568080907.672,-19.043,34.180,33.691,52.734,11.230
1568080907.675,-10.254,29.785,28.320,43.457,8.789
1568080907.679,46.387,30.273,27.344,-7.324,8.301
1568080907.683,38.574,34.180,26.367,-4.883,-14.160
1568080907.687,-17.090,36.133,24.414,51.270,-29.785
1568080907.691,-14.648,39.062,23.926,58.594,26.367
1568080907.695,47.363,40.527,24.414,3.906,66.406
1568080907.699,68.359,40.527,34.668,-10.254,33.203
1568080907.703,16.602,39.551,41.016,33.691,6.836
1568080907.707,-10.254,35.645,35.645,59.570,14.648
1568080907.711,41.992,31.738,31.250,15.625,36.621
1568080907.715,85.449,26.855,32.715,-20.020,-1.953
1568080907.718,47.852,25.391,37.109,16.602,-38.086
1568080907.722,-2.441,29.785,36.621,52.246,-27.344
1568080907.726,29.297,31.738,34.668,26.367,-12.695
1568080907.730,90.332,30.762,39.062,-2.441,17.090
1568080907.734,77.637,27.344,40.039,34.180,45.410
1568080907.738,20.996,33.203,33.691,76.172,44.922
1568080907.742,0.977,37.598,28.320,33.691,35.645
1568080907.746,52.734,35.645,26.855,-26.855,48.828
1568080907.750,76.172,43.457,30.762,-13.184,19.531
1568080907.754,15.137,40.527,35.156,31.250,-7.324
1568080907.758,0.000,31.250,34.668,37.598,51.758
1568080907.761,65.430,33.203,32.715,-3.906,61.035
1568080907.765,84.473,33.691,35.645,-20.996,0.000
1568080907.769,29.297,32.715,40.039,24.414,4.395
1568080907.773,-0.977,33.691,36.621,55.176,45.410
1568080907.777,46.387,30.273,28.809,17.578,23.926
1568080907.781,83.496,27.344,26.367,-19.043,62.012
1568080907.785,40.039,29.785,28.809,12.695,79.590
1568080907.789,-8.789,36.621,30.273,57.617,-13.184
1568080907.793,17.090,36.133,26.367,38.086,50.781
1568080907.797,81.055,32.227,23.926,-5.859,54.688
1568080907.800,71.289,35.156,31.250,10.742,2.930
1568080907.804,4.883,38.086,32.227,53.711,29.785
1568080907.808,-0.488,36.133,27.832,45.898,33.203
1568080907.812,55.664,31.250,25.879,-1.465,35.156
1568080907.816,63.965,30.273,26.367,-8.789,-8.789
1568080907.820,2.930,34.668,29.785,40.039,27.832
1568080907.824,-20.508,35.156,32.715,63.477,117.188
1568080907.828,34.668,31.738,27.832,15.137,51.758
1568080907.832,59.082,28.809,24.414,-10.742,19.043
1568080907.836,3.418,32.715,28.320,32.227,20.508
1568080907.840,-29.785,34.668,34.180,64.941,0.000
1568080907.843,16.602,31.738,34.668,30.273,34.180
1568080907.847,61.035,33.691,28.320,-7.812,65.430
1568080907.851,21.973,35.645,26.367,14.160,26.855
1568080907.855,-27.832,36.621,24.414,52.734,-14.160
1568080907.859,-12.207,34.180,22.949,37.109,51.758
1568080907.863,32.227,27.832,28.320,-13.184,70.312
1568080907.867,28.809,30.762,34.668,-7.812,44.434
1568080907.871,-21.973,34.668,31.250,47.852,28.809
1568080907.875,-25.879,29.297,26.855,55.176,53.223
1568080907.879,29.297,26.855,30.273,4.395,86.426
1568080907.883,38.086,28.809,30.762,-8.301,37.109
1568080907.886,-19.043,30.273,30.273,36.621,8.301
1568080907.890,-41.016,29.785,31.250,60.059,17.090
1568080907.894,9.766,26.855,26.367,18.555,33.203
1568080907.898,41.992,27.832,21.484,-8.789,-3.418
1568080907.902,-4.395,30.273,24.902,22.949,3.906
1568080907.906,-40.039,28.320,28.809,55.664,96.680
1568080907.910,1.953,22.949,29.785,27.344,52.734
1568080907.914,50.293,23.438,28.320,-13.184,44.434
1568080907.918,22.461,28.809,21.484,6.836,69.336
1568080907.922,-33.691,26.367,19.043,41.016,15.625
1568080907.925,-21.484,22.461,21.973,25.879,44.922
1568080907.929,40.039,24.902,23.438,-18.066,48.340
1568080907.933,37.598,31.250,21.484,-13.672,-16.113
1568080907.937,-26.855,32.227,22.949,32.227,-76.660
1568080907.941,-31.250,31.738,28.809,44.922,-24.414
1568080907.945,39.062,35.156,28.809,3.418,20.996
1568080907.949,57.129,37.598,25.879,-9.277,12.207
1568080907.953,-1.953,30.273,24.414,41.504,7.324
1568080907.957,-33.691,22.461,26.367,70.312,13.672
1568080907.961,14.160,23.438,27.344,25.879,21.484
1568080907.965,58.594,24.902,28.320,-4.883,47.363
1568080907.968,16.602,25.879,29.785,29.785,57.129
1568080907.972,-25.879,29.785,31.738,65.918,35.645
1568080907.976,16.113,31.250,34.668,37.598,78.125
1568080907.980,70.801,29.297,30.273,-7.324,41.016
1568080907.984,47.852,26.855,24.902,10.742,-12.207
1568080907.988,-9.277,23.926,29.297,57.617,20.020
1568080907.992,0.977,23.926,31.250,49.316,30.273
1568080907.996,64.941,24.902,28.320,4.395,41.016
1568080908.000,61.035,25.391,23.438,3.418,63.477
1568080908.004,6.348,33.691,22.949,46.387,28.320
1568080908.008,16.113,38.086,27.832,70.801,21.973
1568080908.011,73.730,29.297,28.809,23.926,13.184
1568080908.015,81.543,27.344,27.832,-4.883,2.930
1568080908.019,23.926,27.832,31.250,38.574,31.250
1568080908.023,-16.602,23.438,34.668,56.152,42.969
1568080908.027,34.668,22.461,34.180,19.531,28.809
1568080908.031,75.684,18.066,36.621,-9.277,-10.254
1568080908.035,37.109,15.625,36.133,16.113,-14.648
1568080908.039,0.977,24.902,40.527,61.523,17.090
1568080908.043,30.762,32.227,39.551,42.969,62.012
1568080908.047,75.684,29.297,29.297,-4.883,55.176
1568080908.050,47.852,26.367,29.785,12.207,19.531
1568080908.054,-5.371,29.297,32.715,64.453,32.227
1568080908.058,-1.465,27.832,29.297,64.941,19.531
1568080908.062,56.152,23.438,26.855,13.672,-15.137
1568080908.066,67.871,22.949,28.809,7.812,2.930
1568080908.070,15.137,28.320,34.180,58.594,18.066
1568080908.074,-4.395,32.715,38.086,74.219,0.000
1568080908.078,49.805,26.855,31.250,29.297,19.043
1568080908.082,82.520,27.832,33.691,5.859,-11.230
1568080908.086,34.180,35.645,37.598,36.133,40.527
1568080908.090,0.488,36.133,33.203,63.477,58.594
1568080908.093,41.992,38.574,24.902,24.902,-56.152
1568080908.097,79.590,40.527,20.996,-12.207,-30.762
1568080908.101,44.434,39.062,28.809,19.043,17.578
1568080908.105,-9.766,37.109,30.762,62.012,54.199
1568080908.109,12.207,30.762,28.809,49.316,38.574
1568080908.113,70.801,31.250,32.715,7.324,-6.348
1568080908.117,51.270,37.109,33.691,13.184,0.488
1568080908.121,-4.395,34.180,24.902,55.176,12.207
1568080908.125,3.418,36.621,20.996,57.129,-4.883
1568080908.129,47.363,40.527,19.043,4.883,37.109
1568080908.133,47.852,33.691,22.949,-9.766,64.941
1568080908.136,-4.883,32.227,31.250,41.504,23.438
1568080908.140,-24.414,29.785,32.227,62.500,52.246
1568080908.144,31.250,28.320,30.273,15.137,69.824
1568080908.148,51.758,34.668,30.762,-9.766,49.316
1568080908.152,1.953,33.691,31.738,28.320,11.230
1568080908.156,-37.109,25.879,31.250,63.965,-7.812
1568080908.160,-3.418,22.949,28.320,26.855,-13.672
1568080908.164,45.898,25.391,28.809,-13.184,6.348
1568080908.168,12.207,29.785,33.691,20.508,61.035
1568080908.172,-38.574,34.180,31.738,68.359,59.570
1568080908.175,-11.230,33.691,27.832,53.223,-3.418
1568080908.179,48.340,30.762,24.414,0.977,-8.789
1568080908.183,29.785,30.273,24.414,1.465,26.855
1568080908.187,-30.762,28.320,27.832,51.270,43.945
1568080908.191,-30.273,26.855,27.832,53.711,24.902
1568080908.195,29.785,24.902,28.809,1.953,64.941
1568080908.199,53.223,22.949,31.250,-6.836,48.828
1568080908.203,-3.418,24.414,36.133,37.109,10.254
1568080908.207,-29.297,30.273,36.621,58.594,66.895
1568080908.211,31.738,32.715,28.809,14.160,49.316
1568080908.215,70.801,32.227,29.785,-18.555,27.344
1568080908.218,24.414,33.691,34.668,13.672,20.508
1568080908.222,-14.648,32.227,33.691,51.758,30.273
1568080908.226,21.484,30.273,28.809,23.926,22.461
1568080908.230,64.941,26.855,26.367,-17.578,-7.812
1568080908.234,43.945,25.391,27.344,13.184,29.785
1568080908.238,2.441,30.273,29.297,64.453,84.473
1568080908.242,12.695,33.203,27.832,45.410,54.688
1568080908.246,56.641,29.785,25.391,-8.301,22.461
1568080908.250,59.570,27.832,24.902,-2.441,46.875
1568080908.254,10.254,30.762,27.344,49.805,24.902
1568080908.258,-4.395,33.691,29.297,61.035,19.043
1568080908.261,51.270,31.738,26.367,6.836,30.273
1568080908.265,68.848,26.367,24.414,-15.625,77.637
1568080908.269,14.160,29.297,27.344,36.621,27.832
1568080908.273,-15.137,26.855,30.762,71.289,-13.184
1568080908.277,31.738,22.949,24.414,31.250,33.203
1568080908.281,77.148,27.832,22.461,0.000,0.488
1568080908.285,35.645,27.344,30.273,31.738,-17.578
1568080908.289,-14.160,23.438,29.785,62.988,6.348
1568080908.293,20.508,23.926,22.949,36.621,66.895
1568080908.297,77.637,27.344,24.902,1.953,68.848
1568080908.300,55.176,30.762,26.367,18.555,29.785
1568080908.304,3.906,31.738,27.344,63.965,71.777
1568080908.308,15.625,35.156,28.320,57.129,89.355
1568080908.312,72.266,37.598,24.414,5.859,56.152
1568080908.316,72.266,41.504,30.273,9.766,29.297
1568080908.320,13.184,44.434,30.273,58.105,17.578
1568080908.324,2.441,44.434,25.391,71.289,12.695
1568080908.328,64.453,45.898,28.320,23.438,31.738
1568080908.332,87.891,40.527,26.855,3.418,39.062
1568080908.336,32.715,35.645,25.391,41.992,24.902
1568080908.340,3.418,36.621,27.344,66.406,40.527
1568080908.343,55.176,35.645,28.320,34.668,31.738
1568080908.347,104.492,32.715,31.250,10.742,51.270
1568080908.351,70.312,31.738,36.133,39.551,87.402
1568080908.355,20.996,32.715,42.969,77.637,56.152
1568080908.359,43.945,32.227,42.480,57.617,66.406
1568080908.363,98.633,36.133,34.180,4.883,72.754
1568080908.367,85.449,38.086,32.227,14.160,77.148
1568080908.371,32.227,37.598,33.691,59.082,75.684
1568080908.375,38.574,38.574,29.785,58.105,27.344
1568080908.379,98.633,34.180,28.320,11.230,48.828
1568080908.383,107.422,33.203,32.227,1.953,87.402
1568080908.386,50.781,36.133,32.227,48.828,55.176
1568080908.390,24.902,36.133,30.762,69.336,63.965
1568080908.394,72.754,37.109,28.809,19.531,20.020
1568080908.398,103.516,38.086,28.320,-7.812,-10.742
1568080908.402,49.316,29.297,29.785,32.715,-9.277
1568080908.406,8.301,24.414,27.344,62.012,6.348
1568080908.410,50.781,29.297,26.367,26.855,16.602
1568080908.414,92.285,30.273,28.809,-12.207,-26.367
1568080908.418,59.082,27.832,30.273,10.742,-24.902
1568080908.422,14.160,30.273,29.297,55.176,-16.113
1568080908.425,37.109,30.762,28.320,40.039,-16.602
1568080908.429,93.750,30.762,26.367,-10.254,25.879
1568080908.433,80.566,30.273,22.949,-7.324,42.480
1568080908.437,20.996,27.832,23.926,46.875,55.664
1568080908.441,17.578,27.344,23.926,49.805,65.918
1568080908.445,74.707,25.879,21.484,-5.371,53.711
1568080908.449,89.844,27.832,21.973,-14.648,22.949
1568080908.453,38.574,30.762,28.809,32.227,-32.227
1568080908.457,19.043,31.250,28.320,58.594,39.062
1568080908.461,76.172,34.668,26.855,18.066,38.086
1568080908.465,106.934,38.086,28.809,-8.301,-64.941
1568080908.468,63.965,37.598,30.273,29.297,-36.133
1568080908.472,28.809,33.691,30.762,62.988,6.348
1568080908.476,63.965,32.715,27.344,29.297,-5.371
1568080908.480,113.770,36.621,23.438,-7.324,-7.324
1568080908.484,85.938,37.109,23.926,20.020,3.418
1568080908.488,27.832,34.180,28.320,62.988,-8.789
1568080908.492,40.527,31.738,27.344,47.363,-11.719
1568080908.496,94.238,35.156,27.344,-5.859,82.031
1568080908.500,95.703,40.527,33.203,2.930,25.879
1568080908.504,41.992,39.551,39.551,60.547,-21.973
1568080908.508,27.832,37.598,36.621,70.801,21.973
1568080908.511,76.660,33.691,25.879,12.695,0.977
1568080908.515,85.449,29.785,27.832,-13.184,32.227
1568080908.519,31.738,30.762,34.180,35.156,49.316
1568080908.523,9.277,32.227,35.645,64.453,13.672
1568080908.527,61.035,32.227,32.227,22.461,3.906
1568080908.531,100.098,31.250,31.738,-0.488,18.066
1568080908.535,55.664,28.809,34.668,31.738,12.695
1568080908.539,9.277,31.738,37.598,63.965,8.789
1568080908.543,46.875,33.203,34.668,40.039,36.621
1568080908.547,97.656,28.809,28.809,-4.883,91.797
1568080908.550,62.988,32.227,27.832,11.719,142.090
1568080908.554,8.301,37.598,27.344,57.617,39.551
1568080908.558,19.531,31.250,27.344,47.363,0.000
1568080908.562,71.289,30.273,28.320,-2.930,5.371
1568080908.566,79.102,31.738,32.227,-3.906,17.090
1568080908.570,21.973,30.762,34.668,49.316,5.859
1568080908.574,7.324,28.809,27.344,64.453,37.109
1568080908.578,67.871,24.902,24.414,13.672,62.012
1568080908.582,90.332,29.785,31.250,-0.977,39.062
1568080908.586,36.621,36.621,37.598,35.156,85.449
1568080908.590,3.906,35.156,35.645,57.617,17.578
1568080908.593,55.176,36.133,31.738,22.461,-7.324
1568080908.597,96.680,36.133,26.367,-13.184,32.715
1568080908.601,54.199,38.086,23.438,20.508,30.273
1568080908.605,9.766,36.621,25.879,60.547,12.695
1568080908.609,38.574,30.762,23.438,38.574,11.719
1568080908.613,94.727,31.250,28.320,-5.859,17.578
1568080908.617,75.195,31.250,38.086,9.277,69.824
1568080908.621,12.207,31.250,33.691,56.152,58.105
1568080908.625,13.672,27.344,26.855,46.387,-29.785
1568080908.629,68.359,29.297,23.438,-5.859,-26.367
1568080908.633,75.195,34.668,24.414,-13.672,30.762
1568080908.636,27.832,35.156,30.762,34.668,46.875
1568080908.640,9.277,33.203,32.227,52.734,38.086
1568080908.644,59.082,32.227,27.344,6.348,18.555
1568080908.648,88.867,33.691,27.832,-12.207,-24.414
1568080908.652,34.180,28.809,27.344,26.855,-8.789
1568080908.656,-7.324,21.484,23.438,54.688,52.734
1568080908.660,31.738,20.508,24.902,13.184,50.781
1568080908.664,73.242,21.484,25.391,-23.438,23.438
1568080908.668,45.410,23.926,28.320,12.207,21.484
1568080908.672,-6.348,26.367,31.738,52.734,3.418
1568080908.675,15.137,21.484,32.715,37.598,5.371
1568080908.679,88.867,20.996,33.691,3.418,64.941
1568080908.683,81.543,32.227,28.809,4.883,38.574
1568080908.687,14.160,38.574,25.391,46.875,-9.766
1568080908.691,12.207,43.457,19.043,47.852,63.477
1568080908.695,66.406,38.574,10.742,-10.254,78.125
1568080908.699,86.426,37.109,9.277,-13.672,63.965
1568080908.703,30.273,37.598,12.695,33.691,42.480
1568080908.707,-3.418,26.367,21.484,49.805,4.883
1568080908.711,56.641,26.855,23.438,4.883,7.324
1568080908.715,97.168,31.250,18.555,-24.414,0.000
1568080908.718,50.293,25.391,19.043,22.461,-24.902
1568080908.722,14.160,25.879,19.043,67.383,0.000
1568080908.726,50.781,26.855,18.066,27.832,42.969
1568080908.730,92.773,28.320,22.949,-17.578,104.980
1568080908.734,68.359,34.180,24.902,15.625,50.781
1568080908.738,21.973,34.180,21.484,60.059,-40.039
1568080908.742,38.574,36.621,22.949,42.480,-2.930
1568080908.746,97.168,38.574,24.414,-3.418,8.301
1568080908.750,90.332,35.645,21.973,-2.441,1.465
1568080908.754,26.367,32.227,23.438,42.480,2.441
1568080908.758,12.695,26.367,23.438,47.852,44.922
1568080908.761,64.941,23.926,21.484,-1.465,22.949
1568080908.765,84.961,27.344,21.973,-13.672,-9.277
1568080908.769,35.156,28.809,27.344,34.180,13.184
1568080908.773,10.254,29.297,32.715,62.500,68.359
1568080908.777,62.500,29.785,27.344,21.484,93.262
1568080908.781,106.934,31.250,17.578,-7.324,36.621
1568080908.785,68.848,38.086,15.137,30.273,29.297
1568080908.789,21.973,40.039,18.066,65.430,97.656
1568080908.793,54.199,32.715,20.508,33.691,74.707
1568080908.797,104.004,32.715,22.949,-2.930,23.438
1568080908.800,80.566,34.668,26.855,21.484,50.781
1568080908.804,23.926,30.762,31.250,66.406,56.641
1568080908.808,31.738,32.715,33.203,61.035,35.156
1568080908.812,89.844,34.668,29.785,8.789,-3.418
1568080908.816,87.891,31.738,29.297,3.906,-23.926
1568080908.820,26.855,32.715,36.133,59.082,36.133
1568080908.824,6.836,30.762,34.180,71.777,50.293
1568080908.828,60.059,25.879,25.391,9.277,12.207
1568080908.832,86.426,28.809,29.297,-12.207,35.156
1568080908.836,29.785,32.715,35.645,42.969,80.078
1568080908.840,-0.488,34.180,29.785,74.219,76.660
1568080908.843,58.105,35.645,24.902,26.855,50.781
1568080908.847,99.609,34.180,23.926,-9.277,78.613
1568080908.851,51.758,33.691,24.414,23.438,77.148
1568080908.855,4.883,32.715,31.738,63.965,60.547
1568080908.859,37.109,31.738,30.762,41.992,71.289
1568080908.863,90.332,33.691,27.344,-0.977,28.809
1568080908.867,76.172,35.645,29.297,18.555,13.184
1568080908.871,21.484,38.086,29.785,68.359,27.832
1568080908.875,28.320,35.156,28.320,62.012,19.531
1568080908.879,92.285,27.832,26.855,13.672,-0.977
1568080908.883,100.586,29.297,26.855,11.230,7.324
1568080908.886,37.598,34.668,32.715,56.641,-23.926
1568080908.890,19.531,38.086,41.992,76.660,-7.812
1568080908.894,78.613,36.621,37.109,29.785,22.949
1568080908.898,100.586,32.715,24.902,2.930,-3.418
1568080908.902,45.410,29.785,23.926,47.363,-12.207
1568080908.906,6.348,26.855,30.762,77.637,-24.414
1568080908.910,46.875,32.227,30.273,35.156,-30.273
1568080908.914,89.844,35.156,28.320,-3.418,-28.320
1568080908.918,52.734,31.250,30.762,26.367,14.648
1568080908.922,1.465,32.715,34.180,73.242,43.945
1568080908.925,25.391,35.156,38.574,54.688,38.086
1568080908.929,81.055,34.180,36.621,7.812,38.086
1568080908.933,63.477,34.668,28.320,18.066,41.992
1568080908.937,-0.977,35.645,26.855,66.895,82.520
1568080908.941,-3.418,30.762,22.949,62.012,83.496
1568080908.945,51.270,26.367,20.996,6.836,76.660
1568080908.949,57.617,31.738,28.809,7.324,24.414
1568080908.953,2.930,32.715,30.762,59.082,-31.738
1568080908.957,-16.602,26.367,27.344,63.965,6.836
1568080908.961,38.574,31.250,28.320,14.160,48.828
1568080908.965,68.359,38.086,31.250,-6.836,59.570
1568080908.968,14.160,32.715,33.691,31.738,10.254
1568080908.972,-26.367,27.832,32.227,65.918,-19.531
1568080908.976,15.137,24.902,26.367,32.227,8.301
1568080908.980,55.176,22.461,23.438,-8.301,24.414
1568080908.984,23.926,24.414,25.879,21.973,26.367
1568080908.988,-34.180,23.438,27.344,64.941,10.742
1568080908.992,-23.926,19.043,25.391,46.387,1.953
1568080908.996,37.109,21.484,24.414,-0.488,30.762
1568080909.000,30.762,26.367,27.344,0.977,72.266
1568080909.004,-33.203,29.785,33.203,46.387,51.270
1568080909.008,-40.527,31.738,34.668,56.641,11.719
1568080909.011,19.043,31.738,28.320,3.906,31.250
1568080909.015,37.598,32.715,24.902,-11.719,38.574
1568080909.019,-14.648,32.227,26.855,37.598,59.570
1568080909.023,-44.434,33.691,27.832,56.641,30.762
1568080909.027,1.953,33.691,21.973,5.371,42.480
1568080909.031,35.645,31.738,21.484,-18.066,39.551
1568080909.035,-10.742,32.227,23.926,28.809,-3.418
1568080909.039,-59.082,39.062,22.461,64.941,-25.391
1568080909.043,-26.855,37.109,17.090,33.203,46.387
1568080909.047,20.020,33.203,19.043,-9.766,47.852
1568080909.050,-14.648,33.203,29.785,10.254,-40.527
1568080909.054,-69.824,32.715,31.738,50.293,-8.301
1568080909.058,-51.270,33.203,29.785,35.645,37.109
1568080909.062,12.695,27.832,26.855,-13.184,69.336
1568080909.066,15.137,31.738,24.414,-8.301,30.273
1568080909.070,-44.434,37.109,29.785,40.039,-1.465
1568080909.074,-57.129,32.227,28.320,44.922,-5.371
1568080909.078,4.883,29.297,20.020,-1.953,4.883
1568080909.082,28.809,27.832,18.555,-14.160,48.340
1568080909.086,-30.762,28.809,19.531,30.762,-13.672
1568080909.090,-60.059,35.645,19.531,58.105,-28.809
1568080909.093,4.883,37.598,17.090,13.672,29.297
1568080909.097,51.758,32.715,21.973,-15.625,29.785
1568080909.101,-1.465,28.809,29.785,19.043,71.289
1568080909.105,-54.199,27.344,31.738,55.176,54.199
1568080909.109,-13.672,27.832,33.203,30.762,37.598
1568080909.113,41.992,25.879,29.297,-21.973,20.020
1568080909.117,21.973,24.902,31.738,-3.418,41.016
1568080909.121,-33.691,25.879,36.621,52.246,84.473
1568080909.125,-35.645,27.832,28.809,39.551,40.527
1568080909.129,24.414,31.250,20.996,-17.090,20.020
1568080909.133,31.250,33.203,20.020,-19.531,37.598
1568080909.136,-23.438,33.691,26.855,40.039,53.223
1568080909.140,-24.414,32.227,26.855,62.012,81.543
1568080909.144,41.992,32.715,20.508,6.348,47.852
1568080909.148,59.082,31.250,20.508,-14.160,-27.344
1568080909.152,-1.465,29.297,28.320,41.504,11.719
1568080909.156,-36.133,28.320,36.621,75.195,26.367
1568080909.160,9.766,27.344,38.574,28.320,-3.906
1568080909.164,54.688,30.273,30.762,-24.414,49.805
1568080909.168,15.137,34.180,29.785,4.883,14.160
1568080909.172,-38.574,38.086,33.203,49.316,-18.555
1568080909.175,-11.230,35.645,29.297,25.391,34.180
1568080909.179,43.457,32.227,30.762,-16.602,68.359
1568080909.183,13.184,32.227,34.668,-4.883,20.020
1568080909.187,-52.246,32.227,30.273,49.316,43.945
1568080909.191,-37.598,33.203,22.949,46.387,65.918
1568080909.195,32.227,28.809,18.555,-16.113,53.711
1568080909.199,39.062,27.344,22.949,-17.090,96.191
1568080909.203,-20.996,27.832,29.297,38.574,60.059
1568080909.207,-35.645,26.855,27.832,47.363,43.457
1568080909.211,23.438,27.344,24.414,-1.953,44.922
1568080909.215,53.711,29.297,20.996,-21.973,14.160
1568080909.218,-7.812,27.832,25.391,19.531,61.523
1568080909.222,-53.711,25.879,34.668,49.316,28.809
1568080909.226,5.859,27.832,33.203,12.695,-19.531
1568080909.230,56.641,27.344,32.227,-25.391,21.973
1568080909.234,20.508,25.391,31.250,4.395,29.297
1568080909.238,-32.715,27.344,22.949,46.875,20.020
1568080909.242,-8.789,27.832,20.996,30.273,69.336
1568080909.246,63.477,27.832,19.531,-16.113,51.758
1568080909.250,59.570,31.738,18.066,0.000,40.527
1568080909.254,-0.488,36.133,27.344,60.547,8.301
1568080909.258,-7.324,36.133,31.250,56.152,16.602
1568080909.261,48.340,30.762,28.320,-6.836,22.949
1568080909.265,61.035,23.438,29.785,-16.602,-3.906
1568080909.269,-6.836,21.484,32.227,37.109,29.297
1568080909.273,-40.527,18.555,29.297,54.688,22.949
1568080909.277,18.555,13.672,31.738,-1.953,28.809
1568080909.281,64.453,20.996,38.086,-26.367,16.113
1568080909.285,14.160,22.461,36.621,22.461,13.184
1568080909.289,-40.039,21.484,31.250,57.617,38.574
1568080909.293,4.395,28.809,28.320,26.367,20.996
1568080909.297,70.801,33.203,27.832,-10.254,38.574
1568080909.300,41.992,35.156,23.926,13.672,41.016
1568080909.304,-16.602,34.180,20.508,56.641,40.527
1568080909.308,1.465,32.227,20.996,41.992,56.641
1568080909.312,68.359,32.715,26.367,-10.742,22.949
1568080909.316,62.500,31.738,29.785,-7.812,48.340
1568080909.320,-6.348,28.320,29.297,47.363,69.824
1568080909.324,-7.812,25.879,25.879,60.547,21.973
1568080909.328,62.012,24.414,23.438,9.277,-34.668
1568080909.332,83.496,23.926,23.926,-10.742,7.812
1568080909.336,18.066,27.832,28.320,37.598,-6.836
1568080909.340,-15.625,28.809,33.203,66.406,-16.602
1568080909.343,48.340,30.762,29.785,20.020,56.641
1568080909.347,87.891,31.738,27.344,-16.113,48.340
1568080909.351,41.992,34.180,33.203,31.250,69.824
1568080909.355,-3.906,38.086,37.109,77.148,35.645
1568080909.359,30.273,34.180,32.227,38.574,67.871
1568080909.363,96.191,27.832,25.391,-11.230,91.797
1568080909.367,70.801,28.320,24.902,13.184,-14.160
1568080909.371,-1.953,28.320,23.926,54.688,33.203
1568080909.375,5.859,26.855,23.926,40.527,64.453
1568080909.379,72.754,30.762,22.461,-13.184,24.414
1568080909.383,71.777,31.738,26.855,-14.160,-9.277
1568080909.386,5.859,31.250,32.715,44.922,5.859
1568080909.390,-19.043,31.738,26.367,58.105,56.641
1568080909.394,24.414,25.391,20.508,2.441,50.781
1568080909.398,39.062,24.414,21.973,-12.207,25.879
1568080909.402,-25.391,31.738,27.344,41.504,20.020
1568080909.406,-65.430,34.668,35.156,75.195,11.719
1568080909.410,-13.672,30.273,31.738,35.156,-18.555
1568080909.414,33.203,29.785,19.043,-3.418,-27.344
1568080909.418,-8.789,37.109,24.902,33.691,-15.625
1568080909.422,-64.941,36.621,37.598,82.031,13.184
1568080909.425,-26.367,36.621,31.250,59.082,22.949
1568080909.429,48.828,40.527,18.066,6.348,82.520
1568080909.433,32.715,41.016,22.461,14.648,108.398
1568080909.437,-33.691,40.039,28.320,62.988,43.945
1568080909.441,-25.391,37.109,26.367,59.082,39.062
1568080909.445,34.180,30.762,23.438,-0.488,47.363
1568080909.449,23.438,27.832,21.484,-9.766,35.156
1568080909.453,-56.152,29.785,25.879,45.410,11.230
1568080909.457,-83.008,26.367,34.668,63.477,13.184
1568080909.461,-21.973,26.367,31.738,7.812,40.527
1568080909.465,0.488,29.785,23.438,-19.531,36.133
1568080909.468,-64.453,31.738,25.879,34.668,6.348
1568080909.472,-106.445,30.273,27.344,68.848,38.086
1568080909.476,-51.270,27.344,24.902,22.461,53.223
1568080909.480,3.906,25.879,20.996,-16.113,-4.395
1568080909.484,-29.785,26.855,23.926,17.578,10.254
1568080909.488,-83.984,32.715,31.738,64.941,29.785
1568080909.492,-53.223,33.691,31.250,38.574,15.137
1568080909.496,15.137,27.344,29.785,-13.184,64.453
1568080909.500,0.488,24.902,28.320,0.977,43.457
1568080909.504,-62.988,31.250,29.297,55.176,46.387
1568080909.508,-61.523,32.227,28.320,54.688,132.812
1568080909.511,13.184,28.809,24.902,0.977,89.844
1568080909.515,30.762,30.273,21.973,-5.371,97.656
1568080909.519,-36.133,36.133,24.414,46.875,69.824
1568080909.523,-69.336,31.738,27.344,62.500,12.695
1568080909.527,-8.789,21.484,30.273,12.207,29.785
1568080909.531,34.668,24.902,40.527,-10.254,9.277
1568080909.535,-28.809,34.180,39.062,20.996,16.602
1568080909.539,-86.426,36.133,33.203,50.293,19.043
1568080909.543,-35.645,34.180,31.738,19.531,-2.441
1568080909.547,21.484,32.715,28.320,-22.949,25.391
1568080909.550,-21.973,29.785,29.785,7.324,25.879
1568080909.554,-85.449,28.809,31.738,55.664,6.836
1568080909.558,-62.012,27.832,32.227,41.504,51.758
1568080909.562,3.418,27.344,35.645,-3.906,57.617
1568080909.566,-6.836,31.738,39.551,1.465,20.996
1568080909.570,-81.055,34.668,38.086,51.758,8.301
1568080909.574,-86.914,31.250,27.832,58.105,-30.762
1568080909.578,-12.207,27.344,19.043,6.836,-5.859
1568080909.582,9.277,30.762,22.461,-1.953,27.832
1568080909.586,-57.617,34.180,32.715,47.363,20.996
1568080909.590,-88.867,36.621,35.645,64.941,63.965
1568080909.593,-23.926,35.645,31.738,10.742,3.418
1568080909.597,20.508,36.133,34.668,-20.508,-19.043
1568080909.601,-34.180,31.250,37.109,22.949,5.371
1568080909.605,-93.262,20.020,35.156,62.012,1.953
1568080909.609,-55.176,18.555,28.809,22.461,29.785
1568080909.613,10.254,23.926,21.484,-27.832,16.113
1568080909.617,-18.066,26.855,22.461,0.488,-4.395
1568080909.621,-88.379,24.414,33.691,56.152,32.715
1568080909.625,-66.406,24.414,34.180,46.875,25.879
1568080909.629,11.230,25.391,25.879,-12.207,0.977
1568080909.633,8.789,28.809,25.391,-10.742,15.137
1568080909.636,-61.523,36.133,32.715,46.875,73.242
1568080909.640,-73.242,38.574,34.668,55.176,2.930
1568080909.644,11.719,34.180,25.879,-0.977,-38.086
1568080909.648,63.477,32.715,24.414,-17.090,39.062
1568080909.652,9.277,36.133,32.715,36.133,36.133
1568080909.656,-23.438,35.645,32.715,62.500,1.953
1568080909.660,46.387,30.762,22.949,5.859,22.461
1568080909.664,102.539,29.297,17.090,-22.461,8.789
1568080909.668,57.617,28.320,22.461,29.297,-60.547
1568080909.672,5.371,31.250,32.715,71.289,-32.715
1568080909.675,46.875,30.762,36.133,40.039,-14.160
1568080909.679,119.629,28.809,34.180,-0.977,-6.348
1568080909.683,95.703,31.250,32.227,17.578,109.863
1568080909.687,16.113,34.668,32.715,62.012,67.871
1568080909.691,23.438,35.645,36.133,58.105,-8.789
1568080909.695,107.422,32.227,30.762,1.953,-1.465
1568080909.699,119.629,33.203,28.320,0.488,54.199
1568080909.703,50.293,31.738,33.203,62.500,83.008
1568080909.707,34.668,26.855,32.715,78.125,51.758
1568080909.711,104.980,26.367,31.250,18.555,14.160
1568080909.715,135.742,28.320,25.879,-8.789,-4.395
1568080909.718,73.242,32.227,21.484,40.039,-18.555
1568080909.722,34.180,34.180,21.484,73.242,81.055
1568080909.726,92.773,34.180,21.973,25.879,88.867
1568080909.730,150.391,35.156,26.367,-15.137,-42.480
1568080909.734,102.539,33.691,29.297,23.438,3.418
1568080909.738,32.715,32.715,24.902,66.406,6.836
1568080909.742,66.895,33.691,20.996,34.668,-0.488
1568080909.746,141.602,30.273,26.367,-15.625,57.617
1568080909.750,123.047,33.203,31.250,3.418,45.410
1568080909.754,43.457,32.715,25.879,51.758,37.598
1568080909.758,37.598,27.832,19.043,53.711,71.777
1568080909.761,117.188,27.832,15.625,7.812,93.262
1568080909.765,140.137,30.762,14.648,3.418,78.125
1568080909.769,66.895,34.180,17.090,63.965,70.312
1568080909.773,31.250,32.227,18.066,85.938,14.648
1568080909.777,101.074,28.809,17.090,30.762,21.973
1568080909.781,140.625,31.250,20.996,1.953,39.062
1568080909.785,72.754,30.762,26.855,45.410,30.273
1568080909.789,15.137,27.832,21.484,74.707,53.711
1568080909.793,66.406,24.902,13.672,28.320,-8.789
1568080909.797,126.953,26.367,14.160,-10.742,-18.555
1568080909.800,91.309,34.668,21.973,27.832,17.578
1568080909.804,29.785,35.156,29.297,70.801,23.438
1568080909.808,54.199,29.297,23.926,45.410,75.684
1568080909.812,127.930,26.367,20.508,-2.930,40.527
1568080909.816,117.188,25.391,26.367,10.254,-20.996
1568080909.820,35.156,28.320,25.879,62.012,-18.066
1568080909.824,29.297,30.273,19.531,60.547,-15.625
1568080909.828,114.258,30.273,19.043,13.184,12.207
1568080909.832,128.418,31.738,26.855,2.930,48.340
1568080909.836,43.457,29.297,32.227,48.828,33.203
1568080909.840,6.348,28.809,31.738,73.730,11.230
1568080909.843,72.754,33.203,26.855,21.484,9.277
1568080909.847,118.164,35.156,25.391,-12.207,62.012
1568080909.851,57.617,34.668,28.809,35.645,31.738
1568080909.855,-4.883,32.227,37.109,76.660,-2.441
1568080909.859,47.363,28.809,35.156,32.715,39.551
1568080909.863,121.094,32.227,25.879,-10.254,-0.977
1568080909.867,86.914,36.621,25.879,23.926,-36.621
1568080909.871,16.113,36.621,28.809,67.871,6.348
1568080909.875,39.551,37.109,27.832,51.758,56.641
1568080909.879,123.535,38.086,26.855,1.953,54.199
1568080909.883,125.488,36.621,25.391,0.977,36.133
1568080909.886,54.688,39.551,22.461,51.270,26.367
1568080909.890,45.898,35.156,25.391,68.848,58.594
1568080909.894,112.305,28.320,30.762,13.184,45.410
1568080909.898,119.629,28.809,31.738,-10.254,10.254
1568080909.902,38.086,22.949,36.133,37.598,-21.973
1568080909.906,-9.277,22.949,36.133,52.734,23.926
1568080909.910,64.941,26.855,29.297,6.348,43.457
1568080909.914,128.418,24.902,28.320,-18.555,36.133
1568080909.918,63.965,24.902,31.738,18.555,31.250
1568080909.922,-16.113,24.414,34.180,56.641,9.277
1568080909.925,23.438,21.484,29.297,28.809,19.043
1568080909.929,96.680,21.484,24.414,-18.555,15.137
1568080909.933,58.594,24.902,28.320,-0.977,-13.672
1568080909.937,-24.902,27.832,34.180,52.734,0.488
1568080909.941,-14.648,27.344,29.785,46.387,23.438
1568080909.945,66.895,26.367,24.414,-6.348,40.039
1568080909.949,65.918,27.832,29.785,-6.836,23.926
1568080909.953,-21.484,28.809,34.668,44.922,23.926
1568080909.957,-40.039,28.320,33.203,62.988,21.973
1568080909.961,47.363,24.414,30.762,11.230,5.859
1568080909.965,88.867,23.926,26.367,-13.672,-7.324
1568080909.968,26.367,28.320,27.832,35.156,-38.574
1568080909.972,-20.020,29.785,33.691,61.035,0.977
1568080909.976,43.457,30.273,27.832,12.207,27.832
1568080909.980,103.027,28.320,23.926,-16.113,45.410
1568080909.984,45.410,28.320,33.203,32.227,56.641
1568080909.988,-19.043,34.668,35.645,74.219,52.246
1568080909.992,18.555,33.203,30.273,39.062,27.344
1568080909.996,97.656,26.855,31.738,-8.789,16.113
1568080910.000,70.801,22.949,37.598,4.395,25.879
1568080910.004,-21.973,23.438,38.086,50.781,15.137
1568080910.008,-20.508,28.809,28.809,45.898,-4.395
1568080910.011,70.312,33.691,21.973,-10.254,12.695
1568080910.015,83.984,34.180,29.785,-15.625,52.246
1568080910.019,-2.441,34.180,38.086,38.086,48.340
1568080910.023,-31.250,30.273,33.203,52.246,18.555
1568080910.027,51.270,27.344,24.414,-2.441,25.391
1568080910.031,97.168,28.809,22.461,-22.461,17.090
1568080910.035,29.785,30.273,26.855,30.273,47.363
1568080910.039,-29.785,28.320,30.273,66.406,55.664
1568080910.043,27.344,23.926,25.391,23.926,36.621
1568080910.047,98.633,24.902,25.879,-16.113,55.176
1568080910.050,56.152,29.297,32.715,18.555,26.367
1568080910.054,-15.625,29.785,30.273,66.406,9.766
1568080910.058,12.695,27.344,27.344,44.922,-0.488
1568080910.062,98.145,31.250,35.156,-4.883,-33.691
1568080910.066,85.449,31.738,36.621,4.395,24.902
1568080910.070,4.395,26.855,31.250,57.617,14.648
1568080910.074,7.812,24.902,30.273,61.035,-2.441
1568080910.078,107.910,28.320,24.414,3.906,47.852
1568080910.082,134.766,32.227,24.902,-8.789,35.156
1568080910.086,38.574,28.809,34.180,41.504,-5.859
1568080910.090,-15.137,25.879,31.250,64.453,5.371
1568080910.093,60.547,29.785,24.414,12.207,24.414
1568080910.097,100.586,36.621,24.414,-14.160,41.016
1568080910.101,15.625,37.598,25.879,32.227,83.496
1568080910.105,-44.922,34.180,28.809,65.918,63.477
1568080910.109,13.184,35.156,29.297,24.902,25.391
1568080910.113,80.078,31.738,27.344,-16.602,20.508
1568080910.117,31.250,28.809,29.297,17.090,60.059
1568080910.121,-48.828,31.738,35.156,62.500,25.879
1568080910.125,-11.230,35.645,38.086,46.387,55.664
1568080910.129,81.543,31.250,31.250,-4.883,69.336
1568080910.133,72.754,25.391,25.391,-0.977,61.035
1568080910.136,-10.742,29.297,26.855,53.711,88.867
1568080910.140,-25.879,35.645,28.320,64.453,54.199
1568080910.144,57.129,37.598,29.785,11.230,13.672
1568080910.148,82.031,39.551,26.855,-5.859,5.371
1568080910.152,0.000,39.062,21.973,49.316,31.250
1568080910.156,-41.992,36.621,23.438,79.590,58.594
1568080910.160,29.297,30.762,27.832,22.949,37.598
1568080910.164,85.449,27.832,35.645,-16.113,-11.230
1568080910.168,27.344,26.367,36.621,29.297,1.953
1568080910.172,-26.367,25.879,35.645,74.219,29.785
1568080910.175,25.879,26.367,37.109,40.039,-1.953
1568080910.179,89.844,26.367,35.645,-14.160,26.367
1568080910.183,46.875,27.832,37.109,0.488,54.199
1568080910.187,-33.203,26.855,36.133,44.434,11.719
1568080910.191,-11.230,24.414,31.250,36.133,52.734
1568080910.195,76.172,27.344,35.156,-11.719,29.785
1568080910.199,75.684,29.785,39.551,-5.371,5.371
1568080910.203,-7.324,30.762,38.574,53.223,-11.719
1568080910.207,-18.066,29.785,36.621,63.477,-83.984
1568080910.211,62.012,23.926,32.227,-0.977,-28.809
1568080910.215,88.867,23.438,32.715,-15.625,5.859
1568080910.218,14.160,30.273,36.621,37.598,20.508
1568080910.222,-29.785,28.320,36.621,58.594,53.223
1568080910.226,46.387,26.855,29.785,17.090,55.664
1568080910.230,103.027,32.227,26.855,-14.648,66.406
1568080910.234,42.480,32.227,32.715,28.320,41.992
1568080910.238,-25.391,33.691,35.156,79.102,-4.395
1568080910.242,24.902,40.039,40.527,48.828,-16.602
1568080910.246,113.770,39.551,43.457,5.859,10.742
1568080910.250,87.891,38.086,39.062,23.438,29.785
1568080910.254,-1.953,38.086,36.133,68.359,30.762
1568080910.258,0.488,34.668,35.156,62.012,67.383
1568080910.261,84.961,32.715,35.645,3.418,56.641
1568080910.265,93.262,34.180,36.133,1.465,-1.465
1568080910.269,3.906,37.109,37.109,57.617,52.734
1568080910.273,-22.949,39.062,36.621,74.219,33.691
1568080910.277,67.383,40.039,31.738,23.438,38.086
1568080910.281,111.816,39.062,26.367,0.977,18.555
1568080910.285,38.574,41.016,32.227,49.316,14.648
1568080910.289,-19.531,42.969,33.203,74.707,89.844
1568080910.293,46.387,39.551,27.344,28.809,81.055
1568080910.297,111.328,38.086,24.414,-5.859,94.727
1568080910.300,54.688,38.574,24.902,26.855,40.527
1568080910.304,-11.719,38.086,31.250,73.730,-25.391
1568080910.308,26.367,35.156,32.227,52.734,47.852
1568080910.312,109.863,34.180,26.367,3.906,82.031
1568080910.316,91.309,37.109,28.320,20.996,61.035
1568080910.320,2.441,42.480,39.062,71.289,40.039
1568080910.324,4.395,44.434,38.574,68.848,20.996
1568080910.328,91.797,42.480,28.809,9.277,-1.953
1568080910.332,102.051,38.574,24.414,-8.789,40.527
1568080910.336,14.160,41.016,31.738,43.945,24.902
1568080910.340,-20.508,42.969,32.715,62.988,28.320
1568080910.343,64.453,40.527,20.996,9.277,31.738
1568080910.347,112.305,40.527,19.043,-20.020,9.277
1568080910.351,35.156,39.551,27.344,24.414,54.688
1568080910.355,-23.926,36.133,29.297,65.430,18.555
1568080910.359,36.133,36.621,24.902,25.391,4.883
1568080910.363,101.562,37.109,25.879,-20.020,-2.930
1568080910.367,53.711,37.598,32.715,16.113,5.371
1568080910.371,-25.879,43.457,35.156,65.918,36.133
1568080910.375,4.883,45.410,29.297,47.852,17.578
1568080910.379,93.262,41.016,22.949,-4.395,27.832
1568080910.383,73.730,38.086,27.344,5.859,43.945
1568080910.386,-22.461,37.598,33.203,54.688,33.691
1568080910.390,-23.926,35.645,28.809,50.781,45.410
1568080910.394,71.289,32.715,23.926,0.000,49.316
1568080910.398,90.332,33.203,25.391,-8.301,-20.508
1568080910.402,4.883,40.527,31.738,41.992,-13.184
1568080910.406,-35.645,39.062,31.738,61.035,26.367
1568080910.410,45.898,31.738,26.367,11.230,31.738
1568080910.414,101.562,27.344,26.855,-14.160,26.367
1568080910.418,30.762,26.367,34.180,32.715,40.039
1568080910.422,-32.715,29.297,39.551,76.660,-7.812
