timestamps,TP9,AF7,AF8,TP10,Right AUX
1568081284.802,32.715,31.738,35.156,26.855,59.082
1568081284.806,47.852,31.738,30.273,-5.859,46.875
1568081284.810,38.086,36.133,37.598,25.879,96.680
1568081284.814,6.348,32.227,35.156,53.223,58.594
1568081284.817,16.113,34.180,34.668,36.621,26.855
1568081284.821,44.434,41.504,46.875,-0.488,55.664
1568081284.825,25.391,32.715,36.133,-5.859,76.172
1568081284.829,-3.906,25.879,30.273,35.156,29.297
1568081284.833,-8.789,29.297,32.715,32.715,0.977
1568081284.837,12.207,36.621,43.457,-17.090,-17.090
1568081284.841,19.043,39.551,48.828,-33.203,12.695
1568081284.845,-4.883,47.852,45.898,3.418,64.941
1568081284.849,-39.062,34.668,49.805,4.883,65.918
1568081284.853,-35.156,26.367,42.480,-50.781,-15.137
1568081284.857,-20.508,36.133,34.180,-79.590,-66.406
1568081284.860,-42.480,43.457,49.316,-48.340,-56.641
1568081284.864,-73.730,50.293,52.246,-29.785,-25.879
1568081284.868,-93.262,38.574,34.180,-86.914,19.043
1568081284.872,-95.703,33.691,35.156,-141.602,20.020
1568081284.876,-109.375,41.504,41.504,-124.512,-9.766
1568081284.880,-144.043,37.109,36.621,-94.238,22.461
1568081284.884,-148.438,41.016,38.574,-113.770,68.359
1568081284.888,-132.324,44.922,43.457,-164.062,48.828
1568081284.892,-140.137,39.062,42.480,-167.969,18.555
1568081284.896,-164.551,39.551,51.270,-130.859,-33.203
1568081284.899,-172.363,44.434,57.617,-133.789,21.484
1568081284.903,-148.926,40.527,58.105,-182.129,70.312
1568081284.907,-144.531,31.738,53.223,-203.613,11.719
1568081284.911,-173.340,23.926,48.828,-169.922,44.434
1568081284.915,-170.898,26.367,57.129,-127.930,64.941
1568081284.919,-137.207,35.156,57.617,-150.879,29.297
1568081284.923,-121.582,32.715,50.293,-180.664,41.504
1568081284.927,-138.184,24.414,55.176,-144.531,94.238
1568081284.931,-144.531,28.809,58.105,-100.586,75.195
1568081284.935,-120.117,30.762,55.664,-118.164,67.383
1568081284.939,-98.633,26.367,55.664,-153.809,61.523
1568081284.942,-94.727,21.973,58.105,-121.582,48.828
1568081284.946,-100.586,15.625,56.641,-59.570,18.555
1568081284.950,-97.168,15.625,50.293,-58.594,-23.926
1568081284.954,-62.988,15.625,45.898,-96.191,28.809
1568081284.958,-36.621,10.254,44.434,-79.590,4.883
1568081284.962,-40.527,10.254,46.387,-11.230,-8.789
1568081284.966,-39.551,15.625,38.086,3.906,21.484
1568081284.970,-8.789,19.043,28.320,-38.574,34.180
1568081284.974,23.926,22.949,24.902,-43.457,-6.836
1568081284.978,17.578,30.273,20.020,4.883,-33.691
1568081284.982,-2.441,36.133,20.020,29.785,3.906
1568081284.985,20.508,33.203,25.391,0.977,45.410
1568081284.989,57.129,28.809,20.508,-13.672,32.227
1568081284.993,50.293,32.227,11.230,20.996,20.996
1568081284.997,30.273,28.809,9.766,64.941,55.176
1568081285.001,45.898,23.438,9.766,57.617,67.383
1568081285.005,81.543,32.227,7.812,28.809,30.273
1568081285.009,76.172,30.273,11.719,42.969,21.973
1568081285.013,47.852,21.484,13.184,89.844,76.660
1568081285.017,50.781,26.367,9.277,94.238,88.379
1568081285.021,71.289,27.344,11.719,42.969,49.316
1568081285.024,82.520,23.438,13.672,40.039,22.461
1568081285.028,72.754,25.391,8.301,95.215,5.859
1568081285.032,66.406,25.391,7.324,115.723,-6.348
1568081285.036,89.844,31.250,9.277,75.195,-17.090
1568081285.040,109.863,37.109,11.719,56.152,-9.766
1568081285.044,91.309,35.645,14.160,93.262,11.719
1568081285.048,69.824,36.621,10.742,120.117,29.785
1568081285.052,85.938,33.691,6.836,89.355,55.664
1568081285.056,114.258,35.156,10.742,60.547,74.219
1568081285.060,114.746,41.992,14.648,86.426,89.844
1568081285.064,86.914,41.016,14.648,120.117,62.500
1568081285.067,80.566,39.551,13.184,104.980,9.277
1568081285.071,110.352,37.598,11.719,67.383,44.434
1568081285.075,115.723,34.668,14.648,73.730,76.172
1568081285.079,90.332,38.574,18.066,114.258,40.039
1568081285.083,84.473,38.086,19.043,120.117,-6.348
1568081285.087,109.375,36.621,15.137,77.148,-26.855
1568081285.091,118.652,35.645,17.578,60.059,34.180
1568081285.095,94.238,34.668,27.832,104.492,27.832
1568081285.099,77.148,33.203,26.367,130.371,21.973
1568081285.103,94.727,30.273,18.066,92.285,64.941
1568081285.107,109.863,29.785,16.602,67.871,76.660
1568081285.110,96.191,31.250,16.602,103.516,19.531
1568081285.114,77.148,33.203,19.531,137.207,41.992
1568081285.118,86.426,35.645,26.367,110.352,43.945
1568081285.122,111.328,38.086,31.250,73.730,13.672
1568081285.126,108.398,41.016,37.598,97.656,41.016
1568081285.130,88.867,36.621,38.574,140.137,41.016
1568081285.134,91.309,28.320,31.250,123.535,90.332
1568081285.138,110.840,26.367,27.832,69.824,64.941
1568081285.142,98.633,25.879,29.297,62.500,30.762
1568081285.146,66.406,27.832,27.832,105.469,-1.465
1568081285.149,66.895,28.809,25.879,116.699,-7.324
1568081285.153,90.820,26.367,22.461,62.988,35.156
1568081285.157,99.121,26.367,26.367,44.922,44.434
1568081285.161,80.078,33.691,34.668,93.262,21.484
1568081285.165,62.988,36.133,37.109,116.699,28.809
1568081285.169,78.125,32.227,34.180,77.148,55.664
1568081285.173,97.168,29.785,32.227,45.898,3.906
1568081285.177,83.008,31.738,32.227,73.730,21.484
1568081285.181,59.082,34.180,35.645,106.934,60.547
1568081285.185,66.895,33.691,40.039,89.355,0.000
1568081285.189,89.844,35.645,40.527,53.711,-20.996
1568081285.192,82.520,35.156,38.086,66.895,20.020
1568081285.196,57.129,28.809,38.086,108.398,68.848
1568081285.200,53.223,27.344,41.016,103.516,73.730
1568081285.204,75.195,30.273,36.621,55.176,31.738
1568081285.208,81.543,29.785,32.227,49.805,-13.672
1568081285.212,54.199,28.320,33.691,95.215,-0.977
1568081285.216,42.480,31.738,34.668,112.305,45.410
1568081285.220,65.430,31.250,34.668,63.965,3.906
1568081285.224,77.148,27.832,35.645,33.691,9.766
1568081285.228,58.594,27.832,33.203,72.754,43.457
1568081285.232,45.898,26.367,26.855,104.492,73.730
1568081285.235,62.012,27.832,25.879,70.312,20.020
1568081285.239,82.520,30.273,32.227,35.156,-29.785
1568081285.243,69.336,28.809,37.109,60.059,9.766
1568081285.247,46.387,31.738,39.062,97.168,19.531
1568081285.251,50.781,30.762,38.086,75.684,41.504
1568081285.255,65.430,31.738,36.133,26.367,40.039
1568081285.259,63.965,36.133,37.109,34.180,59.082
1568081285.263,41.992,34.180,41.992,77.637,60.059
1568081285.267,38.574,34.668,41.504,80.078,38.086
1568081285.271,63.477,36.133,36.133,32.715,53.711
1568081285.274,71.289,31.250,29.785,18.555,78.613
1568081285.278,48.828,29.785,27.344,62.012,102.539
1568081285.282,33.691,32.227,31.250,83.496,79.590
1568081285.286,51.270,35.645,28.809,37.598,5.859
1568081285.290,67.871,34.180,22.949,10.742,15.137
1568081285.294,52.246,30.273,20.508,49.316,34.180
1568081285.298,39.062,30.273,27.344,84.473,78.613
1568081285.302,54.199,25.879,37.109,60.059,72.754
1568081285.306,69.336,24.902,37.109,20.020,43.457
1568081285.310,53.223,25.879,36.133,35.645,45.898
1568081285.314,27.344,24.414,33.691,75.195,14.160
1568081285.317,29.785,25.391,29.297,67.383,67.871
1568081285.321,54.688,26.855,31.738,21.973,38.086
1568081285.325,57.617,28.320,35.156,21.484,18.066
1568081285.329,34.668,29.785,35.156,68.359,58.105
1568081285.333,25.879,31.250,31.250,74.219,12.207
1568081285.337,44.434,31.250,27.832,27.832,-41.504
1568081285.341,53.711,30.762,27.832,15.137,25.391
1568081285.345,32.227,30.762,31.250,59.082,84.961
1568081285.349,18.066,26.855,31.738,78.613,79.102
1568081285.353,35.156,20.996,21.973,35.156,49.316
1568081285.357,53.711,21.484,20.020,8.301,7.324
1568081285.360,38.086,23.926,24.414,36.621,25.391
1568081285.364,18.555,20.508,28.809,65.430,34.668
1568081285.368,31.738,22.949,31.250,37.598,15.625
1568081285.372,55.664,30.273,25.879,-1.953,17.090
1568081285.376,50.293,33.203,24.414,15.137,-3.906
1568081285.380,26.367,37.598,32.715,55.664,-1.953
1568081285.384,27.344,38.574,29.297,49.316,7.812
1568081285.388,49.316,33.203,21.973,3.418,48.340
1568081285.392,52.734,30.762,25.391,3.418,47.852
1568081285.396,31.738,32.227,28.320,51.270,6.836
1568081285.399,24.902,33.203,26.367,62.012,45.410
1568081285.403,49.316,32.227,28.320,20.996,59.082
1568081285.407,60.059,28.320,35.645,2.441,59.570
1568081285.411,39.062,32.227,38.574,39.551,-0.488
1568081285.415,21.973,34.668,33.203,63.965,-0.488
1568081285.419,39.062,34.180,26.855,24.902,79.102
1568081285.423,58.105,33.691,21.973,-6.836,77.637
1568081285.427,35.645,27.344,21.484,20.508,37.109
1568081285.431,13.672,28.809,27.344,61.523,49.805
1568081285.435,24.414,32.715,31.250,43.945,36.621
1568081285.439,44.922,30.273,32.227,-0.488,12.207
1568081285.442,38.086,30.273,33.203,8.789,43.945
1568081285.446,18.555,29.785,31.250,46.875,15.137
1568081285.450,16.602,30.762,28.320,45.410,36.621
1568081285.454,36.133,34.668,24.414,-1.465,62.012
1568081285.458,43.457,32.715,25.879,-8.301,-18.555
1568081285.462,23.438,26.855,32.715,37.109,-30.762
1568081285.466,19.043,30.273,29.297,51.758,-22.461
1568081285.470,41.016,33.203,22.461,5.859,16.113
1568081285.474,56.152,34.668,24.902,-13.672,37.598
1568081285.478,39.062,34.668,27.344,32.227,11.230
1568081285.482,21.484,32.227,25.879,63.477,23.926
1568081285.485,34.180,29.297,20.508,27.832,-2.930
1568081285.489,47.852,28.809,17.090,-4.395,-31.250
1568081285.493,32.227,31.250,22.461,19.531,21.973
1568081285.497,11.719,33.691,28.809,55.176,46.875
1568081285.501,18.066,27.832,29.785,41.992,51.270
1568081285.505,41.016,27.832,29.785,-0.488,60.059
1568081285.509,41.504,34.668,28.809,5.859,-18.555
1568081285.513,23.438,33.691,28.320,50.293,-9.766
1568081285.517,20.020,31.738,26.855,55.664,109.863
1568081285.521,39.062,31.738,29.785,12.695,81.543
1568081285.524,48.828,32.227,33.691,0.488,24.902
1568081285.528,32.227,35.645,31.738,44.434,36.133
1568081285.532,21.973,39.551,34.180,71.289,-7.324
1568081285.536,35.156,37.109,29.785,29.297,5.859
1568081285.540,48.828,34.180,25.391,-2.930,32.715
1568081285.544,36.133,36.621,32.715,31.250,10.254
1568081285.548,16.602,33.203,39.062,64.453,-24.902
1568081285.552,24.902,27.344,34.180,36.621,-3.418
1568081285.556,45.410,28.320,26.855,-0.488,10.254
1568081285.560,37.598,31.738,28.320,15.625,6.348
1568081285.564,12.695,35.645,31.738,55.176,64.453
1568081285.567,17.090,37.109,27.832,47.852,27.344
1568081285.571,47.852,37.598,21.973,1.953,-18.066
1568081285.575,50.781,34.668,24.414,0.000,16.113
1568081285.579,28.320,35.156,29.297,49.316,44.434
1568081285.583,29.297,40.527,28.320,66.895,83.008
1568081285.587,51.758,37.109,23.438,21.484,20.020
1568081285.591,57.129,30.273,25.879,0.488,-55.664
1568081285.595,35.645,28.320,36.621,46.875,-16.113
1568081285.599,25.391,29.785,38.574,82.031,39.551
1568081285.603,44.922,32.715,35.156,41.504,35.156
1568081285.607,58.105,34.180,36.133,9.277,-10.742
1568081285.610,44.434,35.645,41.016,46.387,31.738
1568081285.614,25.391,36.133,39.551,83.496,44.922
1568081285.618,31.738,33.691,32.227,57.129,26.367
1568081285.622,48.828,35.156,27.832,13.672,79.102
1568081285.626,41.504,38.574,24.902,22.949,74.219
1568081285.630,15.625,35.645,25.879,58.594,52.246
1568081285.634,14.648,34.180,30.273,57.129,60.059
1568081285.638,41.016,35.156,29.785,17.578,54.199
1568081285.642,39.062,31.250,31.250,10.254,35.156
1568081285.646,12.695,29.785,39.551,51.758,61.523
1568081285.649,14.648,33.691,42.480,66.406,93.262
1568081285.653,41.016,34.180,36.133,23.926,-9.766
1568081285.657,50.781,31.250,31.250,5.859,-47.852
1568081285.661,34.668,33.203,29.785,42.480,28.809
1568081285.665,21.484,35.645,30.273,69.824,16.602
1568081285.669,36.621,36.133,27.832,36.133,35.156
1568081285.673,52.246,36.621,28.320,2.441,72.266
1568081285.677,41.992,34.668,35.156,28.809,41.992
1568081285.681,24.414,32.227,37.598,66.895,37.598
1568081285.685,36.621,34.668,36.621,55.176,52.246
1568081285.689,67.383,39.551,31.250,16.602,-4.395
1568081285.692,52.734,38.086,27.344,14.648,27.344
1568081285.696,15.625,35.645,26.367,48.828,47.363
1568081285.700,18.555,35.645,23.926,55.176,10.254
1568081285.704,41.016,31.738,28.320,13.672,14.160
1568081285.708,41.016,34.180,33.203,2.930,8.301
1568081285.712,21.973,36.621,38.086,46.387,41.016
1568081285.716,12.207,35.156,41.992,69.824,40.039
1568081285.720,28.320,33.203,36.621,23.926,34.668
1568081285.724,44.434,29.785,35.156,-2.441,50.293
1568081285.728,29.785,35.156,33.203,38.574,18.066
1568081285.732,13.672,40.039,28.320,66.895,26.367
1568081285.735,28.809,38.574,28.320,33.203,2.930
1568081285.739,49.316,39.551,26.367,-4.883,41.504
1568081285.743,37.598,37.109,27.832,14.648,68.359
1568081285.747,14.648,35.156,36.621,58.105,27.832
1568081285.751,23.926,38.574,40.039,51.758,0.000
1568081285.755,48.828,36.621,35.645,9.277,13.672
1568081285.759,46.875,33.203,29.785,7.812,-35.645
1568081285.763,23.926,34.668,28.320,50.781,-42.480
1568081285.767,18.555,32.227,32.227,61.523,42.480
1568081285.771,43.945,34.180,33.691,17.090,-0.977
1568081285.774,52.734,35.645,30.273,-0.977,-32.227
1568081285.778,33.203,37.598,33.691,39.551,35.156
1568081285.782,21.973,41.504,43.945,62.012,50.781
1568081285.786,39.062,39.062,42.480,20.508,55.664
1568081285.790,49.805,38.086,38.086,-4.883,104.980
1568081285.794,31.250,36.133,34.668,30.762,66.895
1568081285.798,16.602,29.785,25.879,62.988,55.664
1568081285.802,30.762,30.762,22.949,40.039,41.992
1568081285.806,53.223,33.691,25.391,2.441,-45.898
1568081285.810,39.551,33.203,26.367,11.719,-6.348
1568081285.814,12.207,31.738,26.367,52.246,60.059
1568081285.817,17.578,32.227,31.250,53.711,-7.324
1568081285.821,42.969,32.715,34.668,9.766,5.371
1568081285.825,47.852,28.809,35.645,2.930,33.691
1568081285.829,26.855,28.809,34.180,46.875,41.504
1568081285.833,18.555,27.344,29.785,63.477,70.801
1568081285.837,36.621,23.926,24.902,24.902,88.379
1568081285.841,46.387,24.414,24.902,6.836,17.578
1568081285.845,26.367,25.391,26.367,46.387,-17.578
1568081285.849,13.184,28.320,24.902,68.848,-5.859
1568081285.853,31.250,32.227,28.320,33.691,20.020
1568081285.857,48.340,30.273,34.180,-0.488,41.504
1568081285.860,31.738,27.344,31.738,22.949,16.113
1568081285.864,11.230,29.785,30.762,61.035,18.066
1568081285.868,18.066,27.832,32.227,38.574,7.812
1568081285.872,40.039,21.484,28.320,-8.789,35.156
1568081285.876,32.227,20.996,25.879,-1.465,51.270
1568081285.880,6.836,21.484,26.855,41.016,12.207
1568081285.884,13.672,23.926,28.320,43.457,48.340
1568081285.888,38.086,29.785,25.391,3.418,41.992
1568081285.892,44.922,34.668,26.855,-1.465,30.273
1568081285.896,24.414,36.133,35.156,44.922,41.016
1568081285.899,13.184,32.227,35.156,63.477,31.250
1568081285.903,34.180,26.367,33.203,18.066,46.875
1568081285.907,48.340,25.879,36.133,-0.488,15.137
1568081285.911,31.250,28.320,39.551,41.016,-9.766
1568081285.915,24.414,29.297,44.434,72.266,-6.348
1568081285.919,42.969,27.832,44.922,44.922,26.367
1568081285.923,55.176,24.414,38.086,14.160,55.664
1568081285.927,41.992,24.414,35.156,38.574,62.500
1568081285.931,20.996,24.902,33.691,70.801,66.895
1568081285.935,24.414,24.414,33.203,55.664,83.496
1568081285.939,46.875,25.391,33.203,12.207,62.988
1568081285.942,44.434,30.273,37.109,20.996,23.926
1568081285.946,20.020,36.133,42.480,64.453,42.969
1568081285.950,19.043,35.156,40.039,66.406,110.352
1568081285.954,47.852,33.203,36.133,22.949,103.027
1568081285.958,55.664,32.715,37.109,6.836,80.566
1568081285.962,29.785,27.832,38.086,46.387,62.988
1568081285.966,14.160,30.273,34.668,65.918,-6.836
1568081285.970,32.715,35.645,34.180,24.414,7.812
1568081285.974,50.293,34.180,35.645,-2.441,80.566
1568081285.978,35.156,28.809,38.086,34.180,38.574
1568081285.982,17.578,28.809,42.969,69.824,34.180
1568081285.985,27.832,33.691,47.852,42.480,56.152
1568081285.989,50.293,33.691,41.016,5.371,44.922
1568081285.993,43.457,37.598,31.738,24.902,59.570
1568081285.997,16.113,34.180,27.832,65.918,11.230
1568081286.001,20.996,29.297,29.297,60.547,16.602
1568081286.005,52.246,32.715,36.133,24.902,-32.715
1568081286.009,56.152,33.203,33.691,23.438,-71.289
1568081286.013,31.738,31.738,30.762,59.082,-42.969
1568081286.017,27.344,33.691,36.133,69.824,6.348
1568081286.021,47.852,36.621,40.039,21.484,-35.645
1568081286.024,54.199,35.645,41.016,0.977,-34.180
1568081286.028,26.367,29.297,37.109,41.504,30.273
1568081286.032,8.789,26.855,33.203,62.500,22.461
1568081286.036,31.250,27.832,28.320,22.461,39.062
1568081286.040,46.875,26.855,25.879,-11.230,11.230
1568081286.044,28.320,31.250,32.227,20.508,-9.277
1568081286.048,11.230,37.109,36.621,59.570,18.555
1568081286.052,20.996,36.621,31.250,32.227,67.383
1568081286.056,32.227,31.250,27.344,-16.602,20.020
1568081286.060,18.555,26.367,26.855,-5.859,44.434
1568081286.064,-0.488,23.926,26.855,39.551,66.895
1568081286.067,7.812,23.438,29.297,40.039,42.480
1568081286.071,35.645,24.902,28.320,-3.906,79.102
1568081286.075,41.992,27.344,30.273,-3.906,54.199
1568081286.079,18.066,26.367,34.668,47.852,23.926
1568081286.083,5.859,26.855,31.738,60.547,4.395
1568081286.087,26.855,28.320,28.320,12.207,30.762
1568081286.091,41.504,27.344,26.367,-0.977,84.961
1568081286.095,21.484,26.367,30.762,38.574,79.102
1568081286.099,8.301,31.738,36.133,63.965,57.617
1568081286.103,32.715,40.039,33.203,36.133,26.367
1568081286.107,56.641,35.156,27.832,1.953,-6.348
1568081286.110,36.621,26.855,26.367,25.391,-0.977
1568081286.114,12.695,25.391,22.949,62.012,5.859
1568081286.118,22.461,24.902,20.020,41.992,34.668
1568081286.122,44.434,21.973,27.832,-1.465,26.855
1568081286.126,46.387,23.438,28.809,6.348,26.855
1568081286.130,24.902,26.367,31.738,48.340,17.578
1568081286.134,25.391,28.320,36.621,52.246,-54.688
1568081286.138,48.828,31.738,34.180,8.789,-10.742
1568081286.142,46.875,28.809,36.133,-4.395,22.949
1568081286.146,15.137,25.879,32.715,33.691,4.395
1568081286.149,4.883,24.902,27.832,53.223,60.059
1568081286.153,27.344,25.391,26.367,10.742,80.566
1568081286.157,37.598,28.809,23.438,-17.090,37.598
1568081286.161,25.391,31.738,27.344,23.438,14.160
1568081286.165,17.090,32.715,35.156,61.035,-15.137
1568081286.169,31.250,32.227,31.250,31.250,-21.973
1568081286.173,51.270,31.738,25.391,-5.859,-2.441
1568081286.177,43.457,36.133,26.367,18.066,-28.809
1568081286.181,22.949,39.062,29.297,59.570,20.996
1568081286.185,31.738,35.156,28.809,50.293,105.469
1568081286.189,58.105,31.250,28.320,6.836,61.523
1568081286.192,56.641,31.250,29.297,11.230,43.945
1568081286.196,37.109,33.203,31.738,59.570,76.660
1568081286.200,29.785,35.156,34.180,64.941,54.199
1568081286.204,48.340,38.574,34.180,18.555,5.371
1568081286.208,61.523,40.527,35.645,10.254,-1.953
1568081286.212,35.645,38.086,34.180,50.781,-4.395
1568081286.216,19.043,37.109,28.320,67.871,-18.555
1568081286.220,40.039,39.062,26.367,27.344,16.113
1568081286.224,55.176,40.039,26.855,-1.465,62.012
1568081286.228,45.898,38.574,34.180,43.457,19.043
1568081286.232,33.691,39.551,41.504,80.078,-11.230
1568081286.235,43.945,40.039,43.945,49.805,54.199
1568081286.239,62.988,35.645,41.504,12.207,78.613
1568081286.243,45.898,31.250,34.668,25.391,30.762
1568081286.247,24.902,33.203,32.715,73.730,4.883
1568081286.251,32.715,37.598,33.691,70.312,28.320
1568081286.255,54.199,37.598,31.250,17.578,38.086
1568081286.259,54.199,36.133,28.320,10.254,41.992
1568081286.263,28.320,38.086,33.691,54.688,44.922
1568081286.267,19.043,38.086,37.109,64.453,12.207
1568081286.271,34.668,32.715,33.691,13.672,14.160
1568081286.274,42.969,28.809,31.738,-7.812,14.648
1568081286.278,25.879,29.297,35.645,34.668,34.180
1568081286.282,15.625,31.250,35.645,63.477,47.852
1568081286.286,34.180,33.691,33.203,26.855,43.945
1568081286.290,54.199,38.574,30.273,-3.906,79.102
1568081286.294,41.504,44.434,34.668,27.832,47.363
1568081286.298,20.508,40.039,41.504,63.477,9.277
1568081286.302,31.250,32.227,32.715,43.457,48.340
1568081286.306,56.152,31.738,20.996,-0.977,-0.977
1568081286.310,45.898,31.738,20.508,6.836,-34.180
1568081286.314,20.996,27.832,26.367,54.199,8.789
1568081286.317,23.438,27.344,30.762,56.641,40.527
1568081286.321,53.711,29.785,31.738,15.625,53.711
1568081286.325,60.547,33.203,37.109,12.207,35.645
1568081286.329,25.879,34.180,41.992,55.664,61.035
1568081286.333,18.066,31.250,40.527,76.172,34.180
1568081286.337,46.387,31.738,36.621,33.691,-20.996
1568081286.341,58.594,31.738,31.738,1.953,57.129
1568081286.345,32.715,26.855,33.691,41.992,69.824
1568081286.349,14.648,30.273,38.086,74.219,34.180
1568081286.353,32.227,34.180,35.645,33.691,16.113
1568081286.357,50.293,29.785,35.645,-4.395,2.441
1568081286.360,37.109,28.809,37.598,21.484,46.387
1568081286.364,17.090,23.926,37.109,63.477,34.180
1568081286.368,25.391,20.996,33.691,51.270,38.574
1568081286.372,47.852,22.949,30.762,4.883,31.250
1568081286.376,45.410,22.461,33.203,11.719,-12.695
1568081286.380,19.531,21.973,34.180,58.594,-5.859
1568081286.384,5.859,23.438,33.203,56.641,14.160
1568081286.388,29.785,25.391,35.645,12.695,30.273
1568081286.392,39.551,24.414,32.715,2.930,63.477
1568081286.396,13.184,26.367,26.855,43.945,45.410
1568081286.399,4.395,27.832,26.855,63.477,34.180
1568081286.403,31.250,27.344,26.367,18.555,35.645
1568081286.407,46.387,27.832,28.809,-2.441,0.488
1568081286.411,29.785,29.297,31.738,38.086,-3.418
1568081286.415,13.184,28.320,24.902,65.430,8.789
1568081286.419,23.926,25.391,23.438,31.738,59.082
1568081286.423,46.387,30.273,26.855,-6.836,78.613
1568081286.427,37.598,35.645,26.367,15.625,5.371
1568081286.431,12.695,32.227,24.414,56.152,2.441
1568081286.435,10.254,27.832,24.414,46.387,47.363
1568081286.439,33.203,22.461,26.367,5.859,2.441
1568081286.442,35.645,21.484,31.250,5.371,12.207
1568081286.446,13.672,27.344,36.133,47.852,58.594
1568081286.450,17.578,28.320,34.668,62.988,62.988
1568081286.454,44.434,25.879,28.809,17.578,42.969
1568081286.458,52.734,23.926,23.438,-4.395,-3.906
1568081286.462,36.133,29.297,28.809,42.480,20.508
1568081286.466,25.391,32.227,32.715,70.801,7.812
1568081286.470,40.527,29.785,25.879,29.785,-14.160
1568081286.474,56.152,30.273,23.926,0.488,-2.930
1568081286.478,32.715,25.391,21.973,23.926,-6.836
1568081286.482,7.324,20.996,18.555,52.734,0.000
1568081286.485,18.066,24.902,20.508,30.273,59.082
1568081286.489,33.691,27.832,23.926,-12.695,14.648
1568081286.493,22.461,27.344,26.367,2.441,-9.277
1568081286.497,6.836,28.809,25.879,48.340,49.316
1568081286.501,8.789,31.250,24.902,42.969,12.207
1568081286.505,25.391,31.250,21.484,-5.859,16.602
1568081286.509,27.344,25.879,22.949,-6.348,15.625
1568081286.513,8.789,20.020,31.738,41.504,31.738
1568081286.517,-1.953,19.043,31.250,57.617,74.219
1568081286.521,13.184,14.648,27.344,13.672,60.547
1568081286.524,24.902,13.184,26.367,-7.324,-15.625
1568081286.528,6.836,13.672,29.297,32.715,-0.488
1568081286.532,-2.930,13.184,31.738,62.012,40.527
1568081286.536,18.066,11.230,27.344,27.832,-14.160
1568081286.540,37.109,12.207,27.344,-3.418,10.254
1568081286.544,22.949,15.625,26.855,23.438,63.477
1568081286.548,0.488,17.578,26.855,53.223,29.297
1568081286.552,15.625,19.531,26.855,39.062,-0.488
1568081286.556,46.875,18.555,29.297,-0.488,3.906
1568081286.560,38.574,19.531,37.598,4.395,34.180
1568081286.564,17.090,20.508,42.969,54.199,64.941
1568081286.567,23.438,23.926,39.551,62.500,14.160
1568081286.571,41.992,23.926,30.762,11.719,7.812
1568081286.575,39.062,23.926,22.949,-7.324,73.242
1568081286.579,13.184,28.320,24.902,32.227,31.738
1568081286.583,7.324,30.273,25.391,54.688,-8.789
1568081286.587,29.785,29.785,20.508,11.230,47.852
1568081286.591,38.086,33.691,23.438,-16.113,63.965
1568081286.595,17.090,36.133,28.809,20.508,80.078
1568081286.599,0.977,31.250,30.273,50.781,36.621
1568081286.603,11.230,31.250,29.785,19.531,24.414
1568081286.607,25.391,29.297,25.391,-17.090,36.133
1568081286.610,16.602,26.367,26.367,9.277,45.898
1568081286.614,0.977,29.297,29.785,50.781,89.844
1568081286.618,10.254,30.273,29.297,42.480,65.918
1568081286.622,35.156,30.762,24.902,5.859,41.504
1568081286.626,41.016,32.227,28.320,16.113,-12.695
1568081286.630,25.879,34.668,33.691,62.500,-61.035
1568081286.634,22.461,37.109,30.762,62.988,49.316
1568081286.638,42.480,29.785,30.762,15.625,85.938
1568081286.642,47.852,23.926,29.785,3.418,10.742
1568081286.646,21.973,26.855,28.809,46.387,0.977
1568081286.649,10.254,29.785,29.785,61.523,31.250
1568081286.653,36.133,29.785,27.344,24.414,34.180
1568081286.657,55.176,25.391,27.344,11.230,-10.254
1568081286.661,18.066,26.367,29.785,30.762,-10.742
1568081286.665,-10.254,32.227,27.344,44.922,4.883
1568081286.669,11.230,30.762,26.855,29.297,28.809
1568081286.673,30.273,29.785,23.926,-13.184,20.996
1568081286.677,21.484,33.203,18.555,4.395,40.039
1568081286.681,0.977,37.598,21.973,49.316,67.871
1568081286.685,1.465,39.062,23.926,29.297,68.848
1568081286.689,29.785,36.133,20.020,-11.719,31.738
1568081286.692,36.621,39.551,20.020,-7.324,21.484
1568081286.696,12.207,41.504,21.484,34.180,47.852
1568081286.700,5.859,37.109,20.020,49.316,-18.066
1568081286.704,27.344,32.715,16.113,7.324,-18.555
1568081286.708,33.203,30.762,14.160,-11.230,6.836
1568081286.712,10.254,30.762,18.555,28.809,5.371
1568081286.716,0.488,30.762,22.949,52.734,42.480
1568081286.720,18.555,33.691,20.508,18.555,31.250
1568081286.724,37.598,37.598,26.367,-4.395,46.875
1568081286.728,25.879,33.203,30.762,27.344,61.035
1568081286.732,6.836,24.902,26.855,60.059,40.039
1568081286.735,22.949,28.809,25.391,45.898,27.832
1568081286.739,46.875,32.227,22.461,11.230,16.602
1568081286.743,39.062,31.250,24.414,24.414,34.668
1568081286.747,17.578,30.762,32.227,66.895,22.461
1568081286.751,19.043,34.180,32.715,60.547,37.598
1568081286.755,43.457,39.062,29.297,13.184,85.449
1568081286.759,43.945,40.039,34.180,9.277,55.664
1568081286.763,18.555,35.645,38.574,51.758,2.930
1568081286.767,13.184,33.203,31.250,62.500,8.789
1568081286.771,33.691,33.691,22.461,13.184,60.547
1568081286.774,42.480,31.250,22.949,-14.160,41.016
1568081286.778,24.902,27.832,26.367,27.344,15.625
1568081286.782,7.812,26.367,24.902,57.617,10.742
1568081286.786,25.391,27.832,20.508,26.367,24.902
1568081286.790,48.340,32.227,20.508,-2.930,7.812
1568081286.794,37.109,38.086,26.367,20.020,11.719
1568081286.798,19.531,37.109,27.832,59.082,-1.953
1568081286.802,27.344,32.715,20.020,41.016,-36.621
1568081286.806,47.363,32.715,13.184,-6.348,-2.930
1568081286.810,46.875,31.738,16.113,4.883,25.391
1568081286.814,21.973,34.668,24.902,49.805,36.621
1568081286.817,20.020,40.039,30.273,52.246,29.297
1568081286.821,46.875,39.062,28.320,7.812,28.320
1568081286.825,49.805,33.691,22.949,-3.418,10.742
1568081286.829,31.250,33.203,21.484,43.945,56.152
1568081286.833,23.438,35.156,24.902,69.336,64.941
1568081286.837,39.551,29.297,22.949,20.020,17.578
1568081286.841,52.246,26.367,23.926,-4.883,20.020
1568081286.845,35.645,27.344,31.738,38.086,73.242
1568081286.849,20.508,24.414,30.273,66.895,66.406
1568081286.853,33.691,24.414,23.438,35.645,59.082
1568081286.857,57.129,22.461,23.438,2.441,116.699
1568081286.860,46.387,19.531,26.855,24.414,55.664
1568081286.864,18.066,20.508,29.785,60.547,37.598
1568081286.868,25.391,20.508,30.273,50.293,42.969
1568081286.872,50.781,23.438,23.926,6.348,20.996
1568081286.876,49.316,24.414,20.996,10.742,13.672
1568081286.880,25.391,21.973,27.832,58.594,52.734
1568081286.884,19.043,19.531,28.809,61.523,68.848
1568081286.888,44.922,20.020,25.879,14.648,52.246
1568081286.892,60.547,28.320,29.297,3.906,28.320
1568081286.896,43.945,31.738,30.762,48.340,-21.484
1568081286.899,31.738,28.809,28.809,69.336,12.695
1568081286.903,45.898,29.785,26.855,32.227,23.926
1568081286.907,57.617,29.785,24.902,4.395,-18.555
1568081286.911,40.527,18.555,21.973,33.691,-16.602
1568081286.915,22.949,15.625,18.066,68.848,30.273
1568081286.919,35.645,20.508,19.043,42.480,16.113
1568081286.923,50.293,20.020,23.926,-3.906,-6.836
1568081286.927,34.180,20.508,28.809,6.348,44.434
1568081286.931,11.230,20.508,35.156,53.711,67.871
1568081286.935,10.254,21.484,33.203,51.758,3.906
1568081286.939,30.762,22.949,27.832,0.977,-28.809
1568081286.942,37.598,20.996,28.320,-1.953,28.320
1568081286.946,18.066,20.996,28.320,46.387,35.645
1568081286.950,15.625,25.391,24.902,59.570,69.824
1568081286.954,37.109,25.879,21.484,13.672,113.770
1568081286.958,48.340,24.902,18.555,-4.883,71.777
1568081286.962,28.809,23.926,20.996,33.203,25.879
1568081286.966,12.207,24.414,25.391,56.152,60.059
1568081286.970,26.855,25.879,26.855,18.555,15.137
1568081286.974,43.945,27.344,26.367,-8.301,5.859
1568081286.978,27.344,22.461,25.879,24.414,29.785
1568081286.982,11.230,20.996,25.879,62.500,-11.230
1568081286.985,26.367,23.926,22.949,41.992,24.414
1568081286.989,48.340,24.902,23.926,-1.465,17.090
1568081286.993,43.457,31.250,25.879,11.230,44.434
1568081286.997,20.020,34.180,24.902,52.246,26.367
1568081287.001,20.996,31.738,15.625,47.363,-43.457
1568081287.005,56.152,26.367,11.719,10.254,15.625
1568081287.009,54.688,25.391,22.949,7.324,45.898
1568081287.013,12.207,27.832,29.785,39.551,5.371
1568081287.017,12.695,29.297,28.809,57.617,-15.137
1568081287.021,42.969,30.273,31.738,24.902,57.617
1568081287.024,58.105,29.785,40.527,7.324,115.234
1568081287.028,38.574,26.855,41.992,45.898,70.312
1568081287.032,16.602,26.855,40.039,71.777,11.719
1568081287.036,30.762,25.391,38.086,37.109,35.156
1568081287.040,47.363,20.996,38.574,5.859,65.430
1568081287.044,34.668,21.973,39.551,28.809,57.617
1568081287.048,15.137,24.414,37.109,63.965,83.984
1568081287.052,22.949,23.438,31.738,46.387,76.172
1568081287.056,50.293,31.250,26.855,10.742,52.734
1568081287.060,51.758,36.621,29.785,25.879,33.691
1568081287.064,28.809,30.273,33.203,66.895,73.242
1568081287.067,27.344,27.344,32.715,67.383,65.430
1568081287.071,53.711,31.250,35.156,25.391,-4.395
1568081287.075,53.223,31.250,35.156,20.020,14.160
1568081287.079,23.438,29.785,31.738,63.965,12.695
1568081287.083,12.207,30.273,31.738,76.660,42.969
1568081287.087,36.133,31.738,35.645,28.320,24.902
1568081287.091,51.270,35.645,35.156,2.441,-63.965
1568081287.095,28.320,32.715,32.227,38.086,-75.684
1568081287.099,16.602,33.203,33.691,70.312,-29.297
1568081287.103,34.668,31.250,31.250,40.527,25.391
1568081287.107,54.688,28.809,29.297,4.395,5.371
1568081287.110,44.434,33.203,26.367,20.508,25.391
1568081287.114,23.438,35.156,23.926,62.012,32.227
1568081287.118,26.855,33.691,23.438,56.641,-2.930
1568081287.122,43.945,31.738,19.043,6.348,25.879
1568081287.126,48.340,33.203,26.367,8.789,7.324
1568081287.130,22.461,32.227,37.598,51.270,-6.836
1568081287.134,13.672,23.926,33.203,54.688,29.297
1568081287.138,35.156,22.461,27.832,7.812,6.348
1568081287.142,44.922,26.367,31.250,-5.859,-15.625
1568081287.146,25.879,33.203,35.156,41.992,20.996
1568081287.149,12.207,35.645,33.691,66.895,43.945
1568081287.153,33.203,32.227,29.785,25.391,41.504
1568081287.157,49.316,34.668,28.809,-2.441,52.734
1568081287.161,34.668,36.133,28.320,33.691,57.617
1568081287.165,13.672,34.668,33.203,67.383,85.449
1568081287.169,20.996,35.645,36.133,41.992,32.715
1568081287.173,43.457,32.715,30.273,1.953,-15.625
1568081287.177,39.551,34.668,29.785,20.020,15.625
1568081287.181,17.090,37.598,29.785,61.035,47.363
1568081287.185,17.578,35.156,30.762,54.199,33.691
1568081287.189,45.898,32.227,32.715,11.230,7.812
1568081287.192,60.059,33.691,32.715,11.719,-41.504
1568081287.196,38.086,35.645,34.180,54.688,-12.695
1568081287.200,25.391,34.180,35.156,64.453,46.875
1568081287.204,43.457,32.227,34.180,18.555,-1.465
1568081287.208,48.828,33.691,29.297,-2.930,-54.688
1568081287.212,25.879,37.109,26.855,35.645,-5.371
1568081287.216,10.254,36.621,24.902,61.523,76.172
1568081287.220,24.414,34.180,20.508,23.926,60.059
1568081287.224,41.016,27.344,20.020,-10.254,-4.395
1568081287.228,28.809,28.320,27.832,17.578,-0.977
1568081287.232,6.348,33.203,34.180,57.617,-0.977
1568081287.235,15.625,35.156,30.762,41.504,2.441
1568081287.239,36.621,35.645,28.809,-3.906,32.227
1568081287.243,31.250,40.039,32.715,7.324,17.090
1568081287.247,12.207,43.945,30.762,53.711,44.922
1568081287.251,9.277,36.621,25.879,52.734,34.668
1568081287.255,32.227,31.738,23.438,4.883,51.758
1568081287.259,42.480,36.133,25.879,-0.488,52.246
1568081287.263,17.090,35.645,27.344,47.363,47.363
1568081287.267,6.836,34.668,21.973,62.500,64.941
1568081287.271,25.391,32.715,17.090,16.602,54.688
1568081287.274,36.133,32.715,19.043,-9.766,98.633
1568081287.278,19.043,34.180,21.484,25.391,62.500
1568081287.282,5.371,32.715,19.531,60.059,47.852
1568081287.286,19.043,33.691,20.996,26.855,69.824
1568081287.290,36.621,35.645,25.391,-11.719,64.453
1568081287.294,22.461,33.203,28.320,12.695,49.805
1568081287.298,0.488,33.691,28.320,51.758,46.387
1568081287.302,9.277,36.133,24.902,40.527,-2.441
1568081287.306,25.879,31.738,23.926,1.953,0.488
1568081287.310,20.508,30.762,26.367,4.883,21.973
1568081287.314,-0.977,30.273,24.414,44.434,19.043
1568081287.317,-5.371,26.855,21.484,52.246,28.320
1568081287.321,16.602,31.738,25.879,9.766,32.227
1568081287.325,16.602,34.180,28.809,-5.371,29.297
1568081287.329,-15.137,32.715,30.273,40.039,-4.395
1568081287.333,-24.414,32.715,30.273,62.012,-30.273
1568081287.337,-2.441,32.227,28.809,17.090,-1.953
1568081287.341,10.254,32.715,30.273,-9.277,20.020
1568081287.345,-8.789,30.273,29.785,26.855,0.488
1568081287.349,-23.438,23.438,31.250,60.547,-5.859
1568081287.353,-1.465,20.996,36.133,38.086,6.836
1568081287.357,17.578,24.902,34.668,-1.465,19.043
1568081287.360,1.953,27.344,29.297,16.602,-20.508
1568081287.364,-20.508,25.391,26.855,59.082,-3.418
1568081287.368,-19.531,22.461,27.344,46.875,25.879
1568081287.372,2.930,22.949,28.809,3.418,14.160
1568081287.376,-0.488,26.367,29.785,4.883,37.109
1568081287.380,-25.391,34.668,29.785,53.223,55.176
1568081287.384,-26.367,37.598,28.809,66.406,103.027
1568081287.388,-2.441,29.785,29.785,21.484,87.402
1568081287.392,-1.465,23.926,23.438,0.488,93.750
1568081287.396,-28.320,23.438,21.484,39.062,51.758
1568081287.399,-35.645,25.879,29.297,66.406,18.066
1568081287.403,-16.602,27.344,30.762,30.273,55.176
1568081287.407,-9.766,23.438,28.320,-1.465,1.953
1568081287.411,-31.738,26.367,26.367,31.250,-2.441
1568081287.415,-44.922,35.156,32.227,70.312,2.930
1568081287.419,-33.203,39.062,35.645,47.852,9.766
1568081287.423,-18.555,36.621,25.879,0.488,53.223
1568081287.427,-30.762,33.203,20.508,12.207,36.621
1568081287.431,-62.988,27.832,20.996,54.199,15.137
1568081287.435,-62.500,26.367,20.996,50.293,38.086
1568081287.439,-35.645,31.250,22.949,10.742,2.441
1568081287.442,-42.969,34.668,24.414,4.883,-3.906
1568081287.446,-75.195,35.156,23.438,44.922,56.152
1568081287.450,-82.520,37.109,21.973,58.105,54.199
1568081287.454,-64.941,32.227,19.043,9.277,46.387
1568081287.458,-54.688,27.344,20.996,-9.277,0.488
1568081287.462,-74.219,30.762,26.855,35.156,27.832
1568081287.466,-84.473,34.668,22.949,63.965,90.332
1568081287.470,-62.500,30.273,18.555,30.762,41.016
1568081287.474,-44.922,24.902,15.625,-5.371,4.883
1568081287.478,-55.664,25.879,12.207,18.066,13.184
1568081287.482,-71.777,26.367,17.578,56.641,26.367
1568081287.485,-58.594,27.832,19.531,46.387,60.059
1568081287.489,-30.762,34.180,22.461,9.766,38.086
1568081287.493,-31.250,39.062,28.320,14.160,12.695
1568081287.497,-52.246,38.574,26.367,54.688,31.250
1568081287.501,-46.875,36.621,20.996,58.594,46.875
1568081287.505,-24.414,33.691,16.602,18.555,23.438
1568081287.509,-26.855,30.762,17.090,15.137,1.953
1568081287.513,-54.688,31.250,20.020,60.059,34.668
1568081287.517,-60.059,35.156,22.949,74.219,20.020
1568081287.521,-17.090,36.621,22.461,33.203,-9.277
1568081287.524,15.137,37.598,20.020,9.766,49.805
1568081287.528,1.953,35.645,19.531,37.109,50.781
1568081287.532,-2.930,32.227,21.484,66.406,17.090
1568081287.536,24.414,32.227,21.484,38.574,24.414
1568081287.540,52.734,32.227,18.555,1.465,16.602
1568081287.544,48.828,28.809,19.531,22.949,41.016
1568081287.548,35.156,28.320,20.508,63.965,51.270
1568081287.552,48.828,28.809,26.367,51.270,7.324
1568081287.556,78.125,30.273,33.203,7.812,-18.555
1568081287.560,82.520,34.668,33.691,17.578,3.418
1568081287.564,62.500,38.086,32.715,64.941,69.824
1568081287.567,55.664,33.203,27.832,62.500,30.762
1568081287.571,78.613,29.297,20.996,12.695,56.641
1568081287.575,88.379,30.273,21.484,3.418,107.910
1568081287.579,69.824,32.715,29.297,47.852,19.043
1568081287.583,62.988,34.668,35.645,65.918,-6.348
1568081287.587,83.496,33.203,36.133,26.367,52.246
1568081287.591,101.074,30.273,33.203,4.883,71.289
1568081287.595,86.914,36.133,29.297,39.062,42.969
1568081287.599,67.383,38.086,26.855,74.219,51.758
1568081287.603,75.195,31.738,30.762,48.340,35.645
1568081287.607,98.633,32.715,33.691,9.277,2.930
1568081287.610,89.844,35.645,31.250,27.832,-28.809
1568081287.614,67.871,33.203,32.227,69.336,-2.930
1568081287.618,69.336,32.227,33.203,63.965,10.254
1568081287.622,93.262,35.156,33.691,16.602,22.461
1568081287.626,99.121,36.133,34.180,13.672,28.809
1568081287.630,71.777,35.156,31.738,54.688,-35.645
1568081287.634,62.988,33.203,27.832,62.988,-34.180
1568081287.638,80.078,29.297,22.949,18.555,34.668
1568081287.642,87.402,27.344,20.020,1.465,57.617
1568081287.646,67.871,25.879,28.809,43.945,40.527
1568081287.649,52.246,26.855,32.715,66.406,63.965
1568081287.653,66.406,28.809,32.227,24.902,43.457
1568081287.657,83.496,32.227,36.621,-7.324,31.250
1568081287.661,68.848,36.133,36.133,23.438,75.195
1568081287.665,47.852,36.621,35.156,58.594,106.934
1568081287.669,54.199,32.715,37.598,38.086,56.641
1568081287.673,75.684,28.320,33.691,-0.488,1.465
1568081287.677,63.965,25.879,27.832,8.789,31.738
1568081287.681,39.551,25.391,27.344,51.270,38.574
1568081287.685,46.387,29.297,36.133,55.664,-25.879
1568081287.689,63.477,31.250,41.504,10.254,-30.762
1568081287.692,65.918,28.320,36.621,2.441,-3.906
1568081287.696,48.340,28.809,31.738,45.898,-1.465
1568081287.700,43.457,29.297,31.250,63.477,-48.340
1568081287.704,69.336,31.250,27.832,15.137,-36.133
1568081287.708,81.055,34.180,19.043,-10.254,49.316
1568081287.712,62.500,33.203,22.461,38.086,-9.277
1568081287.716,43.945,26.855,34.180,65.918,-2.441
1568081287.720,51.758,24.414,37.109,26.855,96.680
1568081287.724,69.824,25.391,35.645,-6.348,79.102
1568081287.728,60.059,25.391,39.062,20.996,24.414
1568081287.732,37.598,25.391,38.574,58.594,85.938
1568081287.735,40.039,20.020,37.109,36.621,133.789
1568081287.739,65.918,19.531,38.086,-8.301,24.414
1568081287.743,62.988,26.855,34.668,-0.488,-19.043
1568081287.747,29.785,27.344,34.180,43.457,18.066
1568081287.751,29.785,24.902,35.156,49.316,16.602
1568081287.755,59.082,27.344,31.738,6.348,2.930
1568081287.759,67.383,32.227,31.738,-2.930,37.598
1568081287.763,48.828,34.668,41.016,42.969,37.109
1568081287.767,41.992,33.691,43.457,64.941,-41.992
1568081287.771,62.012,30.762,34.180,25.879,-31.738
1568081287.774,74.219,26.367,28.320,2.441,15.137
1568081287.778,58.594,24.414,30.762,36.133,19.043
1568081287.782,40.039,23.926,35.645,66.895,59.570
1568081287.786,48.828,21.973,38.574,36.621,47.852
1568081287.790,75.195,28.809,41.016,-1.465,13.184
1568081287.794,66.895,36.133,42.480,22.949,55.176
1568081287.798,36.133,34.668,41.992,63.477,51.270
1568081287.802,39.551,30.762,41.504,49.805,18.066
1568081287.806,63.477,26.855,39.062,1.953,9.277
1568081287.810,55.664,25.879,31.250,1.953,35.156
1568081287.814,23.438,23.926,20.996,46.875,62.500
1568081287.817,16.113,24.902,19.531,57.617,69.824
1568081287.821,42.480,27.344,27.832,16.113,-1.465
1568081287.825,50.781,26.367,36.133,-1.953,25.879
1568081287.829,28.320,26.367,34.668,35.645,60.547
1568081287.833,19.043,29.785,32.227,61.035,40.527
1568081287.837,40.039,29.297,38.086,24.902,40.527
1568081287.841,63.965,26.367,42.969,3.418,14.648
1568081287.845,51.758,24.902,38.574,37.598,7.324
1568081287.849,38.574,27.832,34.180,70.801,20.996
1568081287.853,53.711,33.203,28.320,46.875,-14.648
1568081287.857,71.289,32.715,22.461,2.441,3.418
1568081287.860,62.012,31.250,27.344,19.043,59.570
1568081287.864,36.133,30.762,35.645,66.406,-2.441
1568081287.868,35.645,26.367,37.598,64.941,-4.395
1568081287.872,59.570,25.879,35.645,19.043,89.844
1568081287.876,61.035,30.762,34.180,16.602,87.891
1568081287.880,33.691,31.738,31.738,61.035,103.027
1568081287.884,30.762,30.762,30.762,71.289,72.754
1568081287.888,58.105,30.273,30.273,26.367,-0.488
1568081287.892,60.547,25.391,30.273,4.883,0.000
1568081287.896,30.762,21.484,32.227,38.574,3.906
1568081287.899,13.672,24.414,32.715,60.059,-19.531
1568081287.903,31.738,25.879,34.668,23.926,0.488
1568081287.907,51.758,26.855,37.109,-6.348,38.574
1568081287.911,37.598,29.297,33.203,17.090,17.090
1568081287.915,18.066,30.273,30.273,50.293,-9.277
1568081287.919,27.832,29.785,34.668,36.621,-1.465
1568081287.923,46.875,30.762,35.156,-1.465,-4.395
1568081287.927,42.969,34.668,33.691,9.766,71.777
1568081287.931,24.414,32.227,35.645,58.594,111.328
1568081287.935,23.926,26.855,33.691,60.547,21.973
1568081287.939,44.434,24.902,27.344,12.207,6.836
1568081287.942,45.410,27.344,31.738,0.977,71.289
1568081287.946,22.949,30.273,37.109,42.480,24.902
1568081287.950,14.160,31.738,36.621,59.082,5.859
1568081287.954,34.668,33.203,31.250,15.137,34.180
1568081287.958,51.758,31.250,27.344,-9.766,22.461
1568081287.962,31.250,31.738,34.668,27.344,28.320
1568081287.966,15.625,34.180,39.551,58.105,50.293
1568081287.970,35.156,33.691,37.109,27.832,22.949
1568081287.974,51.270,31.250,28.320,-7.812,-23.926
1568081287.978,39.551,31.738,28.809,19.043,13.672
1568081287.982,20.508,30.273,35.645,61.523,8.789
1568081287.985,24.414,29.297,38.574,40.039,12.695
1568081287.989,42.969,33.203,34.668,-13.672,46.875
1568081287.993,35.156,36.621,25.879,-6.348,42.480
1568081287.997,14.160,38.574,24.414,43.945,35.156
1568081288.001,18.066,36.133,26.855,49.805,3.418
1568081288.005,47.363,33.691,30.762,9.766,2.930
1568081288.009,51.758,34.180,33.691,1.465,-9.766
1568081288.013,25.879,34.668,35.645,42.969,-0.977
1568081288.017,15.137,34.180,34.180,63.965,42.480
1568081288.021,33.203,35.156,30.273,21.973,23.926
1568081288.024,53.711,34.668,27.832,-5.371,0.488
1568081288.028,39.551,36.133,30.762,31.738,53.711
1568081288.032,21.973,38.086,38.086,62.012,94.727
1568081288.036,35.645,40.039,36.621,35.156,61.035
1568081288.040,51.758,41.504,25.879,-1.953,3.418
1568081288.044,43.945,41.504,22.461,17.578,-5.859
1568081288.048,20.508,36.133,29.785,59.082,18.555
1568081288.052,19.043,29.297,31.738,46.387,51.758
1568081288.056,43.945,31.250,30.273,0.488,66.406
1568081288.060,44.922,37.598,28.809,1.465,66.406
1568081288.064,21.484,39.551,31.738,48.828,43.457
1568081288.067,18.066,37.109,34.180,62.012,0.977
1568081288.071,41.504,35.156,31.738,14.648,-0.488
1568081288.075,50.293,36.621,34.180,-5.859,38.574
1568081288.079,32.715,39.062,40.039,39.551,62.500
1568081288.083,20.020,36.621,39.551,63.965,26.855
1568081288.087,32.227,34.180,30.762,22.949,-8.301
1568081288.091,42.480,29.785,22.949,-8.301,10.254
1568081288.095,25.879,27.832,25.879,24.414,56.641
1568081288.099,12.207,33.203,36.621,66.895,17.578
1568081288.103,23.926,33.691,39.062,42.969,-11.230
1568081288.107,40.527,33.691,33.691,1.465,10.254
1568081288.110,33.203,34.668,37.598,18.555,3.906
1568081288.114,11.230,38.574,41.016,60.547,52.734
1568081288.118,19.531,46.875,31.250,59.082,70.801
1568081288.122,43.945,45.410,24.902,16.602,43.457
1568081288.126,44.434,39.062,25.879,9.277,23.926
1568081288.130,27.832,35.156,30.762,59.082,35.645
1568081288.134,19.043,30.273,34.180,75.195,17.578
1568081288.138,41.016,32.227,31.738,27.832,-33.691
1568081288.142,53.711,35.645,34.668,9.277,16.113
1568081288.146,27.344,37.109,37.109,41.504,0.488
1568081288.149,8.789,39.062,35.645,60.059,20.996
1568081288.153,24.902,40.039,30.273,21.484,96.191
1568081288.157,40.527,41.016,27.832,-11.719,71.289
1568081288.161,29.785,41.016,30.762,17.090,68.848
1568081288.165,11.719,38.574,27.344,51.270,8.301
1568081288.169,17.090,36.621,22.461,30.273,-23.926
1568081288.173,39.062,30.762,24.414,-6.836,9.277
1568081288.177,38.086,29.297,25.879,8.789,1.953
1568081288.181,17.090,36.621,25.879,60.059,18.555
1568081288.185,22.461,41.992,27.344,64.453,33.203
1568081288.189,49.316,40.039,27.832,15.625,46.875
1568081288.192,50.781,37.109,26.367,2.441,62.012
1568081288.196,23.438,33.691,23.438,42.480,8.301
1568081288.200,16.113,31.738,26.855,61.523,-41.992
1568081288.204,43.945,37.109,24.414,22.461,8.789
1568081288.208,54.199,39.062,20.508,-3.906,13.672
1568081288.212,39.551,42.480,24.902,35.156,3.906
1568081288.216,24.414,41.016,26.367,68.848,13.672
1568081288.220,33.203,34.180,21.484,38.574,29.785
1568081288.224,55.664,35.645,20.020,7.324,109.863
1568081288.228,46.875,40.039,23.438,32.715,50.781
1568081288.232,33.203,45.898,24.414,70.801,6.836
1568081288.235,41.016,43.457,20.508,57.129,20.996
1568081288.239,53.711,37.109,20.996,9.277,17.090
1568081288.243,47.852,38.086,25.879,7.812,24.414
1568081288.247,20.508,34.668,26.367,52.734,8.789
1568081288.251,23.926,32.227,25.879,62.012,24.902
1568081288.255,53.223,35.156,25.879,13.672,35.156
1568081288.259,59.082,38.086,27.344,-1.465,21.484
1568081288.263,33.691,35.156,27.832,45.898,41.992
1568081288.267,17.578,29.785,21.484,69.824,27.344
1568081288.271,37.598,29.297,15.625,29.297,18.555
1568081288.274,55.176,27.344,20.508,4.883,47.363
1568081288.278,41.504,28.809,31.738,47.852,56.641
1568081288.282,20.020,30.273,34.180,80.566,84.961
1568081288.286,33.203,32.227,22.949,48.828,70.312
1568081288.290,63.477,36.133,20.508,13.184,10.742
1568081288.294,50.781,30.762,25.879,27.832,-21.973
1568081288.298,23.438,27.344,26.367,64.453,-19.043
1568081288.302,30.273,30.762,21.973,56.641,30.273
1568081288.306,53.711,28.320,19.531,11.230,61.523
1568081288.310,56.641,26.855,24.414,10.742,21.973
1568081288.314,36.133,27.832,26.855,58.594,-18.066
1568081288.317,30.273,30.762,21.973,71.289,1.465
1568081288.321,50.293,34.180,15.137,20.996,-1.953
1568081288.325,55.664,31.250,15.137,-2.441,1.953
1568081288.329,33.691,30.273,20.020,37.109,37.598
1568081288.333,20.020,31.250,22.949,64.453,69.824
1568081288.337,37.598,29.785,24.414,31.250,59.570
1568081288.341,50.293,28.320,26.855,-3.906,31.738
1568081288.345,35.645,30.762,31.250,22.461,66.406
1568081288.349,20.508,30.273,31.738,65.430,39.551
1568081288.353,26.367,28.320,22.949,46.387,58.105
1568081288.357,50.781,30.273,14.648,1.953,83.008
1568081288.360,45.898,30.273,12.695,11.230,9.277
1568081288.364,14.648,28.320,16.113,55.176,0.488
1568081288.368,13.672,27.832,19.043,51.758,47.852
1568081288.372,40.039,30.762,20.020,7.812,52.734
1568081288.376,43.945,31.250,20.996,5.371,-35.156
1568081288.380,18.066,26.367,18.066,46.387,-52.734
1568081288.384,9.766,25.879,14.160,60.059,-40.527
1568081288.388,37.109,27.832,14.160,17.090,-16.113
1568081288.392,56.641,27.344,17.090,-3.418,52.246
1568081288.396,30.273,28.320,21.973,34.668,64.941
1568081288.399,11.719,29.785,25.391,63.965,57.617
1568081288.403,32.715,29.297,28.320,33.203,49.316
1568081288.407,52.734,32.715,25.879,6.348,44.434
1568081288.411,37.598,34.180,20.996,32.715,61.035
1568081288.415,10.742,24.902,22.461,63.965,48.340
1568081288.419,20.996,22.461,25.879,41.504,17.090
1568081288.423,44.922,27.832,27.344,-1.465,42.480
1568081288.427,41.992,28.320,29.297,8.301,46.875
1568081288.431,22.949,25.391,28.320,57.129,50.781
1568081288.435,19.043,27.832,22.949,61.035,77.148
1568081288.439,41.016,28.320,23.438,12.207,5.859
1568081288.442,45.410,23.926,23.926,2.930,10.254
1568081288.446,20.996,21.484,23.438,46.875,79.102
1568081288.450,14.648,26.855,24.902,67.383,51.758
1568081288.454,41.016,28.809,30.273,30.762,24.902
1568081288.458,55.664,24.414,33.691,4.395,10.742
1568081288.462,39.062,24.902,30.762,38.086,-34.180
1568081288.466,20.020,25.879,28.809,69.336,41.504
1568081288.470,31.250,25.879,32.227,44.922,30.762
1568081288.474,52.734,31.738,30.762,11.230,26.855
1568081288.478,41.016,32.715,25.391,25.391,34.668
1568081288.482,12.207,30.273,25.879,62.012,27.832
1568081288.485,16.113,31.250,25.391,46.875,96.191
1568081288.489,43.457,29.785,30.273,-1.953,35.156
1568081288.493,43.945,26.367,37.109,2.441,-8.301
1568081288.497,13.672,22.461,34.668,45.898,11.230
1568081288.501,3.906,22.461,32.715,50.293,4.395
1568081288.505,29.297,28.320,32.715,3.906,29.297
1568081288.509,40.527,29.785,28.320,-14.160,31.738
1568081288.513,25.879,28.809,29.785,33.203,4.883
1568081288.517,18.555,30.762,33.691,63.965,35.645
1568081288.521,32.715,31.250,27.832,22.949,73.730
1568081288.524,53.711,33.691,24.414,-3.418,46.875
1568081288.528,37.109,33.691,26.367,30.273,47.363
1568081288.532,16.602,27.832,29.297,65.430,83.984
1568081288.536,27.344,23.438,31.738,41.992,104.980
1568081288.540,48.828,23.926,34.180,5.859,-7.812
1568081288.544,38.574,22.949,39.551,23.926,-58.594
1568081288.548,17.578,26.367,40.527,66.406,33.203
1568081288.552,25.391,27.832,38.574,58.594,58.105
1568081288.556,49.805,25.391,34.668,11.230,39.062
1568081288.560,48.828,23.926,30.273,12.207,25.879
1568081288.564,22.461,26.855,31.738,57.129,19.043
1568081288.567,16.602,29.785,32.227,65.430,17.090
1568081288.571,42.480,31.250,27.832,18.555,-7.812
1568081288.575,50.293,29.297,30.273,-2.930,-1.953
1568081288.579,23.438,27.344,36.621,34.668,-15.137
1568081288.583,13.184,29.785,39.551,58.105,20.996
1568081288.587,35.156,28.809,41.504,20.020,67.871
1568081288.591,51.270,28.320,37.598,-10.742,14.160
1568081288.595,33.203,30.762,32.227,15.137,-8.789
1568081288.599,16.113,30.762,33.691,55.664,-14.648
1568081288.603,24.414,28.809,37.109,38.574,12.207
1568081288.607,44.434,31.250,33.203,0.977,-3.906
1568081288.610,45.898,35.645,33.203,19.043,-10.254
1568081288.614,26.367,35.156,38.086,62.012,-16.602
1568081288.618,28.320,33.203,33.691,57.129,27.832
1568081288.622,51.758,33.203,33.203,10.742,106.445
1568081288.626,54.199,31.250,39.062,5.859,45.898
1568081288.630,25.391,31.250,38.574,47.363,41.992
1568081288.634,13.672,31.250,37.598,65.918,50.781
1568081288.638,39.062,35.156,38.086,25.391,26.367
1568081288.642,50.781,39.551,37.598,1.465,69.824
1568081288.646,30.762,39.062,40.039,41.504,82.520
1568081288.649,18.555,39.551,40.527,71.289,-0.488
1568081288.653,24.902,35.645,30.273,27.832,-1.465
1568081288.657,39.551,32.715,26.367,-9.766,30.273
1568081288.661,27.344,34.668,31.250,18.555,9.766
1568081288.665,4.883,33.691,34.180,52.734,4.883
1568081288.669,14.648,32.715,35.156,36.621,49.805
1568081288.673,39.062,35.645,36.621,-3.418,47.363
1568081288.677,37.598,37.109,42.480,3.906,29.297
1568081288.681,15.137,36.621,42.969,43.945,66.895
1568081288.685,15.137,38.574,35.645,49.316,19.531
1568081288.689,40.527,39.551,28.320,9.766,12.207
1568081288.692,49.316,41.016,27.832,-2.441,59.570
1568081288.696,22.949,41.504,32.227,37.598,24.414
1568081288.700,6.836,35.645,34.668,57.129,30.762
1568081288.704,34.180,33.691,34.668,18.066,12.207
1568081288.708,52.734,36.133,37.109,-0.488,6.836
1568081288.712,32.227,33.691,41.992,37.598,23.926
1568081288.716,14.648,31.738,46.387,70.312,42.480
1568081288.720,24.902,32.715,43.457,37.598,75.684
1568081288.724,41.504,30.762,37.598,-4.395,68.359
1568081288.728,33.203,32.715,35.645,17.090,81.055
1568081288.732,12.695,33.203,35.645,55.176,88.379
1568081288.735,14.160,30.273,36.133,44.434,63.477
1568081288.739,33.691,30.273,33.691,0.000,52.246
1568081288.743,38.574,31.738,36.621,1.465,56.641
1568081288.747,14.160,26.367,39.062,45.898,21.484
1568081288.751,10.742,25.391,37.109,54.688,5.371
1568081288.755,39.062,30.273,34.180,12.207,42.969
1568081288.759,46.387,27.832,33.691,-1.953,64.941
1568081288.763,25.879,28.809,33.691,42.969,18.066
1568081288.767,14.648,34.180,35.156,70.801,21.484
1568081288.771,29.785,34.180,39.551,31.250,43.945
1568081288.774,41.504,33.203,40.039,1.953,-17.578
1568081288.778,20.996,31.250,39.062,34.180,-2.441
1568081288.782,2.930,29.785,37.109,68.848,43.457
1568081288.786,20.020,27.832,32.715,42.969,41.504
1568081288.790,41.016,20.996,30.762,-2.930,32.227
1568081288.794,31.250,22.461,29.297,14.648,32.227
1568081288.798,11.230,29.785,31.738,59.082,42.969
1568081288.802,13.184,29.785,34.668,48.340,50.781
1568081288.806,40.039,26.367,35.645,0.488,55.664
1568081288.810,38.574,23.926,39.062,-3.906,28.809
1568081288.814,10.254,23.438,35.645,41.016,25.879
1568081288.817,12.695,26.367,27.832,58.594,62.012
1568081288.821,33.203,28.809,24.902,14.648,63.965
1568081288.825,39.551,24.902,25.879,-12.207,22.949
1568081288.829,20.020,24.414,27.344,25.391,-35.156
1568081288.833,4.883,28.320,27.832,53.223,-12.207
1568081288.837,25.391,28.809,26.367,14.648,72.266
1568081288.841,44.434,29.785,27.344,-15.625,70.312
1568081288.845,30.762,33.691,27.832,19.043,2.441
1568081288.849,8.789,34.668,26.855,58.105,-21.484
1568081288.853,16.113,28.320,28.320,39.062,5.371
1568081288.857,42.480,20.996,30.273,-4.883,30.273
1568081288.860,44.434,19.531,35.156,5.371,38.574
1568081288.864,21.973,20.996,42.969,54.688,-14.160
1568081288.868,19.043,23.926,44.922,60.547,-23.438
1568081288.872,41.016,25.879,33.691,11.230,28.809
1568081288.876,47.363,31.738,26.855,0.000,42.969
1568081288.880,27.344,34.668,28.320,43.945,35.645
1568081288.884,14.160,34.668,30.762,64.453,20.508
1568081288.888,34.668,33.203,27.832,22.461,-25.879
1568081288.892,51.758,27.832,23.926,-3.418,-20.996
1568081288.896,39.062,26.367,29.785,38.086,15.625
1568081288.899,34.180,28.320,32.227,67.871,17.578
1568081288.903,46.387,30.762,26.855,29.297,-18.066
1568081288.907,54.688,33.203,23.926,-8.789,-7.812
1568081288.911,37.598,33.691,25.391,12.207,73.242
1568081288.915,21.973,34.668,26.367,52.734,61.035
1568081288.919,32.227,38.574,25.879,39.062,-49.316
1568081288.923,52.246,40.039,26.367,-3.906,-60.059
1568081288.927,46.875,37.598,33.691,8.301,10.254
1568081288.931,22.461,40.039,37.109,52.734,38.086
1568081288.935,19.531,39.062,24.902,54.199,42.480
1568081288.939,44.922,32.227,19.043,14.160,-6.348
1568081288.942,53.711,30.273,24.414,8.301,10.742
1568081288.946,25.879,33.691,25.879,51.758,69.824
1568081288.950,18.066,37.598,32.227,74.219,63.477
1568081288.954,44.922,35.645,40.527,32.715,75.684
1568081288.958,59.570,34.180,42.969,7.812,17.090
1568081288.962,39.062,41.016,39.551,45.410,-32.715
1568081288.966,20.996,41.016,35.156,73.730,42.480
1568081288.970,29.297,33.203,32.715,37.598,54.688
1568081288.974,48.340,26.855,31.250,-3.418,42.969
1568081288.978,39.551,23.926,33.203,14.160,50.781
1568081288.982,14.160,26.855,35.645,55.664,30.762
1568081288.985,23.438,32.715,41.504,58.105,47.852
1568081288.989,48.828,37.109,40.527,15.137,21.973
1568081288.993,49.316,41.504,36.133,13.184,21.973
1568081288.997,25.391,41.504,35.645,61.035,47.852
1568081289.001,20.020,37.598,36.133,71.289,34.668
1568081289.005,41.992,32.715,35.156,26.367,95.703
1568081289.009,53.711,31.738,32.715,10.742,100.586
1568081289.013,32.715,29.297,34.668,56.641,31.250
1568081289.017,19.043,25.879,40.527,85.449,6.348
1568081289.021,39.062,35.645,41.992,42.480,31.250
1568081289.024,50.781,40.039,32.715,1.465,58.594
1568081289.028,35.156,33.203,25.391,33.203,29.785
1568081289.032,16.602,32.715,29.297,72.754,-9.277
1568081289.036,24.902,34.180,28.809,46.875,-23.926
1568081289.040,47.363,34.668,25.879,7.812,47.363
1568081289.044,41.504,37.109,32.227,26.367,62.012
1568081289.048,20.020,36.133,34.180,68.848,11.230
1568081289.052,24.414,33.203,30.273,59.082,62.500
1568081289.056,51.270,30.273,32.227,12.207,12.207
1568081289.060,47.852,28.320,32.227,7.812,-20.508
1568081289.064,17.090,26.855,27.832,47.363,77.637
1568081289.067,9.277,25.391,25.879,56.641,54.688
1568081289.071,32.715,30.762,28.320,7.324,14.160
1568081289.075,46.387,31.250,30.762,-10.254,33.203
1568081289.079,25.391,29.297,31.250,33.203,12.695
1568081289.083,4.395,30.273,25.391,56.641,20.996
1568081289.087,19.531,29.785,21.973,22.461,39.062
1568081289.091,42.480,29.297,24.902,-7.324,8.301
1568081289.095,30.762,26.855,26.855,20.020,-27.344
1568081289.099,10.742,27.344,25.879,59.082,-21.973
1568081289.103,23.926,29.297,32.227,44.434,-27.832
1568081289.107,46.387,29.297,37.598,7.324,-38.574
1568081289.110,36.133,30.273,36.133,16.113,26.855
1568081289.114,12.207,29.297,32.227,55.664,66.406
1568081289.118,14.160,28.809,24.902,52.734,25.879
1568081289.122,38.086,33.203,21.484,6.348,41.504
1568081289.126,44.922,32.715,25.391,-1.953,66.406
1568081289.130,32.715,30.762,34.180,47.852,35.645
1568081289.134,30.762,31.738,40.039,70.801,15.137
1568081289.138,35.645,29.297,37.598,16.602,12.695
1568081289.142,37.598,28.320,30.273,-14.160,41.504
1568081289.146,20.996,27.832,29.297,25.879,63.965
1568081289.149,4.395,27.344,32.227,61.523,10.742
1568081289.153,24.414,28.809,31.250,34.668,37.109
1568081289.157,44.434,32.227,29.785,-11.230,85.938
1568081289.161,32.715,36.621,30.762,9.277,59.570
1568081289.165,13.672,38.086,33.691,55.664,28.320
1568081289.169,22.461,33.203,27.832,41.504,-23.438
1568081289.173,48.828,25.391,19.531,-2.930,-39.062
1568081289.177,46.875,25.391,21.484,4.395,-8.301
1568081289.181,18.555,25.879,32.227,43.945,74.219
1568081289.185,9.766,25.391,36.621,47.852,65.430
1568081289.189,35.645,32.227,37.598,9.277,32.715
1568081289.192,47.363,31.250,41.992,-1.465,48.828
1568081289.196,24.902,28.809,42.969,45.898,19.043
1568081289.200,14.160,34.668,40.039,72.266,-11.719
1568081289.204,30.762,32.715,29.785,26.367,-6.348
1568081289.208,42.480,29.785,27.344,-1.465,1.465
1568081289.212,26.855,31.738,28.320,33.691,44.434
1568081289.216,8.301,31.250,27.344,63.965,51.270
1568081289.220,21.973,34.180,30.762,36.133,56.152
1568081289.224,47.852,39.062,30.273,-0.977,36.621
1568081289.228,39.062,32.715,24.902,17.578,21.973
1568081289.232,14.648,24.414,29.297,55.664,43.457
1568081289.235,20.508,22.461,34.180,51.270,33.691
1568081289.239,41.992,22.949,29.297,7.324,58.105
1568081289.243,40.527,23.438,28.320,0.488,75.195
1568081289.247,24.414,29.297,34.668,44.434,18.066
1568081289.251,26.367,34.668,34.668,59.082,-45.898
1568081289.255,43.945,28.809,28.320,12.695,-3.418
1568081289.259,41.016,27.344,23.438,-10.742,49.805
1568081289.263,17.578,31.250,21.973,32.715,77.148
1568081289.267,2.441,27.832,24.902,53.223,35.156
1568081289.271,19.043,29.785,21.973,13.672,-0.977
1568081289.274,44.434,33.203,23.926,-5.859,2.930
1568081289.278,29.785,31.250,28.320,31.250,58.594
1568081289.282,11.719,28.320,26.367,68.359,100.098
1568081289.286,19.531,23.926,20.020,47.363,65.918
1568081289.290,37.598,24.414,19.531,3.906,0.977
1568081289.294,32.227,26.367,26.855,13.672,-47.363
1568081289.298,11.230,22.949,24.902,55.176,-45.898
1568081289.302,15.625,26.367,28.809,52.246,9.766
1568081289.306,38.574,35.156,34.668,9.766,24.902
1568081289.310,39.551,30.273,25.879,3.418,-10.254
1568081289.314,18.555,26.367,18.555,43.945,-24.414
1568081289.317,17.090,31.738,20.996,57.617,24.902
1568081289.321,41.992,33.691,27.832,17.578,37.109
1568081289.325,52.734,32.227,32.227,1.465,9.766
1568081289.329,31.250,30.762,32.715,42.969,60.059
1568081289.333,14.648,31.250,30.762,68.359,33.203
1568081289.337,36.621,36.133,31.250,29.785,-6.348
1568081289.341,53.711,34.668,28.320,-8.301,4.395
1568081289.345,33.691,31.738,24.414,14.648,30.273
1568081289.349,13.184,32.227,26.855,57.129,90.820
1568081289.353,21.484,28.809,24.902,41.016,88.379
1568081289.357,42.969,25.391,22.461,0.977,-1.953
1568081289.360,38.574,24.902,26.367,11.230,0.488
1568081289.364,24.902,30.273,35.156,60.059,41.992
1568081289.368,23.438,34.180,35.156,69.336,10.254
1568081289.372,41.016,31.738,27.832,16.602,-43.945
1568081289.376,46.387,31.738,29.297,5.371,-57.617
1568081289.380,20.996,34.668,31.738,50.293,0.977
1568081289.384,16.602,33.203,31.250,66.406,50.781
1568081289.388,39.551,28.320,28.320,25.391,73.730
1568081289.392,42.969,26.855,27.832,-3.906,17.578
1568081289.396,21.484,30.762,31.738,32.227,4.395
1568081289.399,15.137,31.250,33.203,68.359,48.340
1568081289.403,26.367,26.855,25.391,34.180,46.387
1568081289.407,39.062,23.926,18.555,-7.324,105.469
1568081289.411,41.016,25.391,24.414,22.461,134.277
1568081289.415,20.020,24.414,36.621,67.871,68.359
1568081289.419,8.301,22.461,35.645,40.039,-14.160
1568081289.423,38.574,30.273,28.320,-7.324,-3.418
1568081289.427,53.711,34.668,36.621,7.812,37.109
1568081289.431,23.438,31.738,43.457,47.852,46.875
1568081289.435,14.160,33.203,38.086,54.688,45.410
1568081289.439,44.922,35.156,35.156,21.484,72.754
1568081289.442,54.199,35.645,31.738,8.789,60.547
1568081289.446,32.715,34.668,24.902,46.875,14.648
1568081289.450,20.508,31.738,23.926,70.312,67.871
1568081289.454,35.156,28.320,22.949,27.344,58.594
1568081289.458,52.734,31.738,24.414,-2.441,31.250
1568081289.462,41.016,34.668,28.320,33.203,11.719
1568081289.466,18.066,28.809,30.762,66.895,-51.270
1568081289.470,29.785,27.832,35.156,44.434,-27.832
1568081289.474,59.082,30.273,35.645,6.836,2.930
1568081289.478,49.805,28.809,33.691,22.949,-27.344
1568081289.482,22.949,31.738,32.227,66.406,-40.039
1568081289.485,29.785,34.668,30.273,60.059,10.742
1568081289.489,54.688,36.133,29.297,16.602,41.504
1568081289.493,58.105,39.062,27.344,14.160,28.809
1568081289.497,34.180,37.109,31.738,57.129,34.180
1568081289.501,25.879,32.227,34.180,68.848,28.320
1568081289.505,51.758,28.320,25.391,22.949,41.992
1568081289.509,54.688,22.949,23.926,4.395,45.410
1568081289.513,29.297,23.926,29.297,46.387,55.664
1568081289.517,16.602,27.344,30.762,70.312,50.293
1568081289.521,29.297,23.438,29.785,24.902,62.988
1568081289.524,48.340,24.414,31.250,-5.371,56.152
1568081289.528,39.062,28.320,34.180,28.809,38.086
1568081289.532,20.996,28.320,35.156,65.918,46.875
1568081289.536,26.855,34.668,32.227,43.945,14.160
1568081289.540,51.270,35.645,31.250,4.395,-3.418
1568081289.544,49.805,31.738,34.668,19.043,83.984
1568081289.548,27.344,36.621,32.715,57.129,88.379
1568081289.552,33.203,38.574,26.367,56.641,3.906
1568081289.556,55.664,38.574,27.344,13.184,-51.270
1568081289.560,51.758,38.086,34.180,4.883,21.484
1568081289.564,31.738,38.574,41.016,48.340,32.715
1568081289.567,28.809,39.062,44.922,64.941,9.766
1568081289.571,51.270,42.480,39.062,26.855,35.645
1568081289.575,59.570,38.086,31.250,6.348,0.488
1568081289.579,40.527,27.832,33.203,45.410,-4.395
1568081289.583,32.715,28.809,36.133,80.078,-13.184
1568081289.587,50.293,31.738,33.691,48.340,-7.812
1568081289.591,64.453,32.715,36.133,11.230,26.367
1568081289.595,50.293,37.598,37.109,37.598,3.418
1568081289.599,32.715,40.527,31.250,80.078,32.227
1568081289.603,35.156,36.133,29.297,59.570,81.543
1568081289.607,52.734,34.668,30.273,10.254,-4.883
1568081289.610,48.340,35.645,30.762,13.672,-22.949
1568081289.614,15.625,33.203,34.668,54.199,34.180
1568081289.618,11.230,30.273,36.133,57.617,43.945
1568081289.622,35.645,28.320,33.691,14.160,31.250
1568081289.626,41.016,28.320,31.250,0.977,36.133
1568081289.630,17.090,31.738,29.785,40.039,50.293
1568081289.634,4.883,30.762,25.879,58.105,69.824
1568081289.638,27.832,26.367,22.949,16.113,56.641
1568081289.642,39.551,27.344,30.762,-7.324,28.320
1568081289.646,20.996,29.297,37.109,36.133,56.152
1568081289.649,8.789,31.250,40.527,70.312,28.320
1568081289.653,23.438,34.180,35.156,36.133,8.789
1568081289.657,49.805,36.133,22.461,0.977,69.824
1568081289.661,42.969,33.691,20.508,23.926,34.180
1568081289.665,20.508,31.738,26.855,63.477,11.719
1568081289.669,29.785,30.273,31.738,61.035,69.824
1568081289.673,51.270,27.344,32.715,20.508,48.828
1568081289.677,44.434,25.391,32.715,15.137,61.523
1568081289.681,23.438,28.809,33.691,56.152,36.621
1568081289.685,27.344,36.621,34.180,65.918,-1.465
1568081289.689,46.875,35.156,31.738,15.625,4.883
1568081289.692,44.434,32.227,30.762,2.441,33.691
1568081289.696,20.996,35.156,30.273,47.852,64.453
1568081289.700,10.254,37.598,32.227,65.918,31.250
1568081289.704,28.809,38.086,33.203,23.926,7.812
1568081289.708,46.875,34.180,32.715,-3.906,14.648
1568081289.712,41.504,40.039,44.922,38.574,55.664
1568081289.716,28.320,51.270,50.781,76.172,63.965
1568081289.720,21.484,38.574,32.715,33.203,55.664
1568081289.724,30.273,27.344,24.902,-14.648,67.871
1568081289.728,32.715,35.156,35.645,10.742,21.484
1568081289.732,14.160,42.969,49.805,54.199,-4.883
1568081289.735,7.812,35.156,60.059,42.480,2.930
1568081289.739,11.230,32.227,45.410,-20.996,2.441
1568081289.743,0.488,33.691,36.621,-33.203,19.531
1568081289.747,-26.367,31.738,41.504,5.371,23.438
1568081289.751,-40.039,36.133,41.504,7.324,48.828
1568081289.755,-15.625,42.480,49.805,-37.109,75.684
1568081289.759,-17.578,52.734,46.875,-66.895,52.734
1568081289.763,-82.031,39.062,41.992,-62.988,21.973
1568081289.767,-118.652,30.273,48.828,-66.895,56.641
1568081289.771,-98.633,45.898,62.012,-102.539,64.453
1568081289.774,-122.559,36.621,71.289,-168.457,29.785
1568081289.778,-173.340,27.344,68.359,-182.129,47.852
1568081289.782,-209.961,40.039,75.195,-160.156,80.566
1568081289.786,-226.074,24.902,79.102,-205.566,37.598
1568081289.790,-207.520,15.625,78.613,-260.254,10.742
1568081289.794,-204.590,36.621,89.844,-232.910,2.441
1568081289.798,-229.980,40.039,88.867,-193.848,-31.738
1568081289.802,-248.047,32.715,73.242,-226.074,20.508
1568081289.806,-235.840,30.273,69.336,-277.344,65.430
1568081289.810,-219.238,33.691,72.266,-271.484,50.293
1568081289.814,-216.797,41.016,69.824,-204.590,21.484
1568081289.817,-220.215,33.691,63.965,-180.664,-7.324
1568081289.821,-185.547,46.387,66.895,-208.496,-8.789
1568081289.825,-165.039,58.594,58.105,-224.121,11.230
1568081289.829,-191.895,43.945,51.270,-187.988,50.293
1568081289.833,-200.684,39.062,50.781,-151.367,104.004
1568081289.837,-169.922,40.527,51.758,-167.480,48.340
1568081289.841,-141.113,41.504,59.082,-190.430,29.297
1568081289.845,-153.320,42.969,54.199,-166.992,50.293
1568081289.849,-161.133,33.691,52.734,-114.746,59.570
1568081289.853,-132.812,35.156,52.734,-116.699,86.426
1568081289.857,-104.004,45.898,42.969,-155.273,23.438
1568081289.860,-98.633,45.898,45.898,-135.254,7.812
1568081289.864,-120.605,38.086,55.664,-83.984,51.270
1568081289.868,-131.348,34.180,54.688,-82.031,31.738
1568081289.872,-99.121,38.086,50.781,-122.559,14.160
1568081289.876,-81.055,31.250,49.805,-122.070,23.438
1568081289.880,-83.496,27.832,47.852,-61.523,48.828
1568081289.884,-77.637,33.203,39.062,-36.621,37.109
1568081289.888,-57.129,35.156,34.668,-83.496,49.316
1568081289.892,-39.062,31.738,33.691,-100.586,65.918
1568081289.896,-42.480,30.273,32.227,-42.480,5.371
1568081289.899,-50.781,28.320,34.180,1.465,-4.395
1568081289.903,-38.574,26.367,35.645,-27.344,32.227
1568081289.907,-5.859,21.484,36.621,-52.734,14.648
1568081289.911,-1.465,16.113,37.598,-14.648,-11.719
1568081289.915,-20.996,8.789,39.062,38.574,19.531
1568081289.919,-0.488,9.277,36.621,35.645,29.785
1568081289.923,48.340,11.230,34.668,6.348,-13.184
1568081289.927,66.895,6.348,35.156,26.855,-4.395
1568081289.931,50.781,5.371,27.344,82.520,32.715
1568081289.935,56.641,8.789,18.066,104.004,32.715
1568081289.939,86.426,7.812,18.555,65.918,19.531
1568081289.942,108.398,7.324,19.531,61.523,37.598
1568081289.946,109.375,8.789,20.020,122.070,15.137
1568081289.950,103.027,8.789,13.672,152.832,3.906
1568081289.954,120.605,8.301,6.836,114.258,19.043
1568081289.958,131.348,11.230,4.395,79.102,-4.883
1568081289.962,116.699,14.648,5.371,108.887,8.789
1568081289.966,109.863,15.137,8.789,154.785,86.914
1568081289.970,119.141,19.043,7.812,126.953,83.496
1568081289.974,134.277,20.020,4.883,79.102,20.020
1568081289.978,131.836,21.973,4.883,104.492,23.438
1568081289.982,110.840,30.762,-2.441,151.367,23.926
1568081289.985,113.281,35.645,-7.324,149.414,19.043
1568081289.989,135.254,30.762,-3.418,106.445,12.207
1568081289.993,134.277,27.832,-1.465,97.168,27.832
1568081289.997,115.723,30.273,-4.395,141.113,88.379
1568081290.001,112.793,29.297,-6.348,157.227,114.258
1568081290.005,133.789,29.785,-6.348,113.770,24.414
1568081290.009,145.508,34.668,-5.371,99.609,-13.672
1568081290.013,134.766,37.109,3.906,143.555,66.406
1568081290.017,121.094,38.086,5.371,170.410,34.668
1568081290.021,134.277,40.039,-1.953,136.719,-7.812
1568081290.024,153.809,38.574,-5.371,106.934,53.711
1568081290.028,137.695,37.109,-7.324,133.301,41.992
1568081290.032,116.211,34.180,-1.953,172.852,27.832
1568081290.036,128.418,33.691,-0.977,154.785,50.781
1568081290.040,146.973,35.156,-2.441,111.328,69.824
1568081290.044,132.812,37.109,2.441,120.605,75.195
1568081290.048,109.863,39.551,8.301,162.598,-5.371
1568081290.052,109.863,37.109,13.184,161.133,-25.391
1568081290.056,129.395,33.691,7.812,109.375,20.996
1568081290.060,135.742,29.297,3.418,100.586,15.137
1568081290.064,113.770,28.809,5.859,143.066,15.137
1568081290.067,100.098,32.227,5.859,153.320,-42.480
1568081290.071,120.605,30.273,6.348,109.375,-21.484
1568081290.075,134.766,31.250,11.230,92.773,84.961
1568081290.079,116.699,34.180,15.137,132.812,68.848
1568081290.083,100.586,35.156,8.301,155.273,-0.488
1568081290.087,115.234,35.645,2.930,119.141,15.625
1568081290.091,130.371,35.156,1.465,83.984,31.738
1568081290.095,118.164,32.227,0.000,107.910,-33.203
1568081290.099,97.656,28.809,5.859,146.973,-30.273
1568081290.103,98.633,26.367,9.766,125.488,48.828
1568081290.107,115.234,24.902,7.812,75.195,21.973
1568081290.110,105.469,24.414,6.348,77.637,-35.156
1568081290.114,74.707,23.438,5.859,113.281,14.160
1568081290.118,73.730,26.855,3.906,116.211,39.551
1568081290.122,97.656,28.320,4.883,73.730,16.602
1568081290.126,103.516,29.297,10.254,58.594,34.668
1568081290.130,77.637,30.273,8.789,94.727,54.688
1568081290.134,68.848,34.180,8.301,113.281,82.520
1568081290.138,85.938,35.156,10.742,71.777,73.242
1568081290.142,87.891,29.297,7.812,39.551,33.203
1568081290.146,68.359,28.320,10.742,73.242,-14.648
1568081290.149,49.805,23.926,19.531,108.887,-11.230
1568081290.153,60.059,26.367,21.973,79.102,14.160
1568081290.157,85.938,33.691,21.484,43.945,-12.207
1568081290.161,80.078,32.715,17.578,61.035,-0.488
1568081290.165,56.152,30.273,15.625,95.703,17.578
1568081290.169,56.641,32.715,14.648,88.379,52.246
1568081290.173,72.754,37.598,11.719,41.504,52.246
1568081290.177,70.801,37.109,11.719,38.086,-19.043
1568081290.181,54.688,34.668,13.672,86.914,13.672
1568081290.185,54.688,30.273,19.043,99.121,35.156
1568081290.189,75.195,26.855,25.879,56.641,10.254
1568081290.192,85.938,29.785,26.367,38.086,-6.348
1568081290.196,64.941,30.273,21.484,74.707,-34.180
1568081290.200,45.898,26.855,17.090,98.633,19.531
1568081290.204,59.570,24.414,16.113,52.734,31.250
1568081290.208,73.730,26.855,17.090,21.484,4.883
1568081290.212,53.711,30.273,18.555,56.641,5.859
1568081290.216,39.062,29.297,19.531,94.727,17.090
1568081290.220,56.152,33.203,21.973,69.824,41.992
1568081290.224,76.660,36.133,26.855,34.180,17.090
1568081290.228,69.824,35.645,29.785,51.758,-36.133
1568081290.232,48.340,32.227,30.273,90.332,-19.531
1568081290.235,48.828,26.855,27.344,85.449,23.926
1568081290.239,70.801,27.344,27.344,35.645,61.523
1568081290.243,65.918,26.855,30.273,25.879,73.730
1568081290.247,39.062,27.832,29.785,71.289,45.410
1568081290.251,33.691,34.180,30.273,91.797,94.238
1568081290.255,56.641,36.133,36.133,49.316,78.613
1568081290.259,66.895,37.109,37.109,28.320,19.531
1568081290.263,46.387,32.227,33.203,64.941,72.754
1568081290.267,35.156,31.250,29.297,89.355,85.449
1568081290.271,51.270,30.273,26.855,49.805,34.180
1568081290.274,63.965,24.414,32.227,16.113,-3.418
1568081290.278,48.828,23.438,36.133,46.875,9.766
1568081290.282,26.367,22.949,35.645,79.102,34.668
1568081290.286,32.227,25.879,30.762,58.594,59.082
1568081290.290,59.082,31.250,26.855,25.391,18.066
1568081290.294,55.664,32.227,28.809,35.645,-9.766
1568081290.298,32.227,29.785,31.738,73.242,21.973
1568081290.302,34.180,26.367,33.691,77.637,61.035
1568081290.306,62.012,31.250,34.668,35.156,52.246
1568081290.310,64.941,37.109,32.227,16.602,16.602
1568081290.314,35.156,34.180,26.367,56.152,20.996
1568081290.317,30.273,31.250,32.227,73.730,33.691
1568081290.321,48.340,32.227,39.062,22.949,39.551
1568081290.325,59.082,30.273,39.062,1.465,12.695
1568081290.329,40.039,23.926,40.039,43.457,34.180
1568081290.333,23.438,21.484,37.109,76.172,60.547
1568081290.337,34.180,24.414,33.203,47.363,57.617
1568081290.341,52.246,28.320,33.203,11.230,25.391
1568081290.345,54.688,35.645,40.039,42.480,19.043
1568081290.349,40.527,36.621,42.480,88.379,51.758
1568081290.353,38.086,33.203,34.668,67.871,43.457
1568081290.357,60.547,31.250,32.715,22.461,78.125
1568081290.360,60.059,29.297,35.156,22.949,56.641
1568081290.364,30.762,28.320,35.156,62.012,2.930
1568081290.368,30.273,32.227,35.645,68.359,50.293
1568081290.372,59.082,38.086,35.156,22.949,-6.348
1568081290.376,67.383,40.527,35.156,9.277,-33.691
1568081290.380,46.387,38.574,34.180,56.152,42.969
1568081290.384,35.156,34.668,29.297,79.590,-1.953
1568081290.388,51.758,32.715,29.785,38.086,10.254
1568081290.392,65.430,35.156,37.598,11.719,0.977
1568081290.396,44.434,30.762,37.598,41.992,22.461
1568081290.399,24.414,24.902,33.203,75.195,48.340
1568081290.403,36.133,30.762,34.668,49.805,35.156
1568081290.407,54.199,34.668,36.133,8.301,29.785
1568081290.411,40.527,35.645,36.621,26.367,22.949
1568081290.415,20.996,35.645,35.645,64.941,58.594
1568081290.419,26.855,34.668,34.180,54.688,16.113
1568081290.423,49.316,34.668,28.809,11.719,-12.695
1568081290.427,48.828,37.109,24.902,10.742,-7.324
1568081290.431,24.902,40.039,28.809,51.758,47.852
1568081290.435,23.926,40.039,36.133,62.012,77.637
1568081290.439,49.316,36.621,40.527,22.461,76.172
1568081290.442,58.594,32.227,39.062,9.277,56.152
1568081290.446,34.180,27.344,36.621,51.758,24.414
1568081290.450,21.484,21.973,32.715,72.754,38.574
1568081290.454,46.387,25.879,26.855,33.203,31.738
1568081290.458,63.477,34.180,22.461,3.906,16.602
1568081290.462,49.805,39.551,26.855,39.062,37.109
1568081290.466,32.715,41.992,32.715,76.660,50.781
1568081290.470,41.016,38.574,35.156,54.688,44.922
1568081290.474,64.941,40.527,35.645,15.137,52.246
1568081290.478,62.012,41.992,30.762,31.738,34.668
1568081290.482,35.645,37.598,26.367,71.289,-1.953
1568081290.485,32.227,34.668,30.273,65.430,14.648
1568081290.489,57.129,34.668,28.809,18.066,52.734
1568081290.493,57.617,35.645,28.320,11.719,62.500
1568081290.497,28.809,36.133,33.691,55.176,29.297
1568081290.501,18.066,34.668,37.598,66.895,20.996
1568081290.505,39.551,32.715,33.203,23.438,48.828
1568081290.509,47.363,34.180,28.809,-1.465,31.738
1568081290.513,24.902,31.738,27.344,34.668,-13.184
1568081290.517,18.066,29.297,25.879,66.895,-13.672
1568081290.521,40.039,29.297,25.879,33.203,16.602
1568081290.524,53.711,30.762,27.344,-1.953,-11.719
1568081290.528,35.645,34.180,33.203,29.785,-14.648
1568081290.532,11.719,35.156,33.203,61.523,40.527
1568081290.536,21.973,36.133,30.762,41.504,33.203
1568081290.540,45.410,34.180,23.926,3.906,50.781
1568081290.544,40.039,33.203,24.414,18.066,41.992
1568081290.548,20.508,33.691,37.109,68.359,2.441
1568081290.552,20.508,25.391,36.133,65.430,20.996
1568081290.556,41.504,22.949,26.855,13.672,2.930
1568081290.560,42.969,24.902,26.855,4.395,-25.879
1568081290.564,18.555,23.926,35.156,48.340,-45.898
1568081290.567,12.207,26.855,37.109,69.336,-21.484
1568081290.571,38.574,28.320,32.715,25.391,62.988
1568081290.575,49.805,30.273,33.203,-1.465,69.824
1568081290.579,28.320,27.344,33.691,42.480,72.754
1568081290.583,10.254,22.949,34.180,75.684,62.988
1568081290.587,21.973,25.391,32.227,44.434,39.062
1568081290.591,40.527,28.320,28.320,4.395,62.988
1568081290.595,29.297,32.227,35.645,26.367,17.090
1568081290.599,9.766,33.203,39.062,65.918,-7.812
1568081290.603,15.625,32.715,29.785,50.293,-4.883
1568081290.607,36.133,32.715,25.391,6.836,-35.156
1568081290.610,33.203,28.320,27.344,10.254,3.418
1568081290.614,4.395,23.438,26.855,49.316,50.293
1568081290.618,4.883,23.438,26.367,51.270,60.547
1568081290.622,33.691,25.391,27.832,2.930,77.637
1568081290.626,35.645,25.391,32.227,-19.043,81.543
1568081290.630,15.625,23.926,32.715,23.438,64.941
1568081290.634,15.137,28.320,26.367,49.805,45.410
1568081290.638,40.039,37.109,24.902,13.184,3.906
1568081290.642,51.270,31.250,24.902,-12.695,-15.137
1568081290.646,31.250,22.949,26.367,30.273,53.223
1568081290.649,14.648,25.391,31.738,73.730,82.031
1568081290.653,29.785,31.738,27.832,43.945,76.660
1568081290.657,50.781,34.180,28.809,2.930,43.945
1568081290.661,41.992,33.203,35.645,18.066,12.695
1568081290.665,17.578,31.738,35.156,53.711,19.531
1568081290.669,18.066,27.832,32.715,48.340,54.688
1568081290.673,43.945,30.273,31.738,7.324,82.031
1568081290.677,47.363,33.203,36.133,7.324,34.180
1568081290.681,21.973,28.809,37.598,48.340,-33.203
1568081290.685,14.160,24.902,29.785,53.223,10.254
1568081290.689,38.574,28.809,27.344,5.859,34.668
1568081290.692,46.387,32.227,26.855,-12.695,3.906
1568081290.696,22.949,29.785,23.438,26.855,-19.043
1568081290.700,10.254,28.320,21.973,47.363,9.766
1568081290.704,22.461,23.926,22.461,7.812,64.941
1568081290.708,41.016,25.391,23.438,-20.020,27.832
1568081290.712,32.227,32.715,28.809,17.090,19.043
1568081290.716,16.602,32.227,28.809,56.641,46.387
1568081290.720,31.250,28.320,24.902,38.086,69.824
1568081290.724,53.223,23.438,27.344,-0.488,80.078
1568081290.728,49.316,24.902,32.227,16.602,54.688
1568081290.732,26.367,26.367,31.738,61.523,66.406
1568081290.735,25.879,23.926,24.902,57.129,56.152
1568081290.739,48.340,26.367,22.949,11.719,40.527
1568081290.743,49.316,28.809,26.367,5.371,22.949
1568081290.747,21.484,29.297,31.738,47.852,3.906
1568081290.751,11.719,32.227,34.180,59.082,-0.977
1568081290.755,36.133,33.203,31.250,13.672,28.320
1568081290.759,45.410,27.344,30.273,-5.859,53.223
1568081290.763,20.996,24.414,30.273,31.250,59.570
1568081290.767,6.836,23.438,26.855,57.129,14.648
1568081290.771,20.508,22.461,22.949,19.531,16.602
1568081290.774,35.645,25.391,27.344,-15.625,55.176
1568081290.778,20.508,27.344,27.344,15.625,31.738
1568081290.782,1.953,25.879,24.414,58.594,10.254
1568081290.786,15.625,32.227,27.344,41.016,25.879
1568081290.790,40.527,40.039,24.902,-2.441,6.836
1568081290.794,35.645,37.598,20.996,3.906,4.883
1568081290.798,13.184,29.785,22.949,49.805,37.598
1568081290.802,18.555,28.320,29.297,55.176,30.762
1568081290.806,42.480,28.809,33.203,4.395,-9.766
1568081290.810,47.363,26.367,34.668,-4.395,0.000
1568081290.814,28.809,24.902,39.551,46.875,-0.488
1568081290.817,20.020,30.273,42.969,69.824,-18.555
1568081290.821,42.969,34.180,40.527,26.367,-9.766
1568081290.825,55.176,35.156,31.738,-2.930,25.391
1568081290.829,33.203,37.109,27.832,33.691,42.480
1568081290.833,16.602,33.203,32.715,65.430,33.203
1568081290.837,29.297,25.879,34.180,32.715,9.766
1568081290.841,44.922,23.926,32.227,-1.465,39.062
1568081290.845,31.738,27.832,32.715,20.996,103.516
1568081290.849,5.371,28.320,33.691,60.547,42.969
1568081290.853,9.766,26.855,32.227,52.246,21.484
1568081290.857,34.668,27.344,32.715,11.230,27.344
1568081290.860,29.785,26.367,35.645,8.789,38.086
1568081290.864,4.883,25.391,39.062,45.898,63.965
1568081290.868,-1.953,23.438,40.039,46.875,35.156
1568081290.872,13.184,21.484,37.109,-6.836,42.480
1568081290.876,20.508,21.484,35.156,-19.043,26.367
1568081290.880,0.488,24.414,32.715,36.133,20.508
1568081290.884,-7.324,28.320,30.273,64.941,98.633
1568081290.888,18.555,28.320,29.297,21.973,53.223
1568081290.892,41.016,29.297,30.273,-9.277,-11.230
1568081290.896,30.762,32.227,30.273,21.973,12.207
1568081290.899,11.719,36.621,33.691,48.340,8.301
1568081290.903,24.414,41.016,35.156,16.113,45.410
1568081290.907,52.734,45.410,27.344,-23.438,0.977
1568081290.911,46.387,45.410,20.508,-11.719,-55.176
1568081290.915,21.973,43.945,20.996,26.855,17.578
1568081290.919,23.926,44.922,22.461,26.367,44.434
1568081290.923,49.805,45.898,23.926,-12.695,21.973
1568081290.927,51.270,43.945,30.762,-9.277,43.457
1568081290.931,21.484,37.109,35.645,41.504,61.523
1568081290.935,17.090,33.203,37.598,60.547,52.246
1568081290.939,40.039,31.738,41.504,21.973,18.066
1568081290.942,46.387,30.273,46.875,11.230,23.926
1568081290.946,22.461,29.297,46.875,56.641,39.062
1568081290.950,4.395,29.297,43.945,80.078,20.996
1568081290.954,18.066,25.879,40.527,40.527,3.418
1568081290.958,35.645,28.809,37.598,2.930,-19.043
1568081290.962,17.578,34.668,40.039,29.785,-46.875
1568081290.966,-1.953,38.574,41.992,64.453,-30.762
1568081290.970,9.277,41.504,37.598,36.621,55.176
1568081290.974,34.180,35.645,30.273,-4.395,95.215
1568081290.978,32.227,30.273,28.320,9.766,47.852
1568081290.982,6.348,29.297,34.668,49.316,6.836
1568081290.985,12.207,34.668,37.109,50.293,-3.906
1568081290.989,41.992,41.504,29.785,9.766,-7.812
1568081290.993,43.945,39.551,29.785,2.930,35.156
1568081290.997,21.973,37.598,32.715,48.340,70.801
1568081291.001,23.438,41.504,28.320,63.477,50.293
1568081291.005,50.781,43.945,27.832,21.484,14.648
1568081291.009,61.035,41.992,32.227,4.883,-3.906
1568081291.013,42.480,43.945,34.668,38.574,20.508
1568081291.017,30.273,44.922,37.109,63.965,49.805
1568081291.021,45.410,39.551,39.551,28.809,41.016
1568081291.024,64.941,40.039,41.016,-4.883,37.598
1568081291.028,51.758,43.457,40.039,23.438,27.344
1568081291.032,29.297,41.504,33.203,57.129,19.531
1568081291.036,34.180,41.992,25.391,33.691,36.133
1568081291.040,51.758,38.574,21.484,-8.789,-34.180
1568081291.044,45.898,33.203,21.973,1.953,-22.949
1568081291.048,17.578,35.156,22.949,42.480,-6.348
1568081291.052,11.719,35.156,25.879,43.945,-54.199
1568081291.056,35.156,35.156,32.715,4.395,25.391
1568081291.060,41.504,33.691,36.133,0.977,50.781
1568081291.064,26.367,32.227,37.598,49.805,-3.906
1568081291.067,16.602,29.297,37.598,70.312,-12.207
1568081291.071,34.668,31.738,38.086,35.645,13.184
1568081291.075,47.363,35.156,42.969,15.137,62.012
1568081291.079,29.297,34.180,44.922,57.129,83.008
1568081291.083,17.090,32.715,41.992,89.355,18.555
1568081291.087,31.250,33.691,39.062,51.758,15.625
1568081291.091,52.734,37.598,40.527,17.090,31.250
1568081291.095,47.852,39.551,41.504,38.086,26.367
1568081291.099,24.414,38.574,36.133,77.148,65.430
1568081291.103,27.832,36.133,30.762,62.012,72.266
1568081291.107,51.270,33.691,27.832,9.766,29.297
1568081291.110,49.805,37.109,30.762,11.719,82.520
1568081291.114,25.391,41.992,37.109,58.105,122.559
1568081291.118,18.555,41.016,36.621,56.641,57.617
1568081291.122,47.363,40.527,38.086,10.254,38.574
1568081291.126,55.176,38.574,33.691,-2.930,14.160
1568081291.130,27.344,37.109,27.832,38.086,-24.902
1568081291.134,17.578,33.203,29.297,63.477,30.273
1568081291.138,34.180,30.273,23.438,16.113,33.691
1568081291.142,42.480,33.203,23.926,-14.648,-20.020
1568081291.146,18.066,34.668,29.297,20.996,-0.488
1568081291.149,2.441,32.715,30.273,49.316,47.852
1568081291.153,16.113,28.809,34.180,26.855,10.254
1568081291.157,39.551,27.832,36.133,-5.859,-5.371
1568081291.161,34.668,25.391,38.086,16.602,16.602
1568081291.165,12.207,23.438,38.086,54.199,-13.184
1568081291.169,14.648,25.391,31.738,48.340,20.020
1568081291.173,38.574,26.855,27.344,7.812,70.801
1568081291.177,41.016,25.879,28.809,5.371,45.898
1568081291.181,20.996,28.320,30.762,51.758,42.480
1568081291.185,18.066,35.156,25.879,56.641,57.617
1568081291.189,38.574,32.227,24.902,8.301,51.270
1568081291.192,44.434,26.367,25.879,-10.254,55.176
1568081291.196,22.949,27.832,25.879,33.203,17.090
1568081291.200,15.625,31.738,25.879,61.523,-22.949
1568081291.204,38.574,32.227,22.461,25.879,-11.719
1568081291.208,60.547,32.715,21.484,-6.836,-0.977
1568081291.212,47.852,36.133,21.484,19.043,5.859
1568081291.216,24.414,36.133,21.973,57.129,32.227
1568081291.220,31.250,36.133,22.949,36.621,-11.719
1568081291.224,55.664,39.062,23.926,-0.488,-19.043
1568081291.228,51.270,41.016,26.367,15.137,-48.340
1568081291.232,22.949,39.551,27.344,55.176,-65.430
1568081291.235,23.926,40.527,28.320,57.617,-11.230
1568081291.239,48.828,38.086,24.902,19.043,34.668
1568081291.243,46.387,34.180,25.391,7.324,47.852
1568081291.247,16.113,30.762,31.738,46.387,24.902
1568081291.251,7.812,26.855,36.133,68.359,39.062
1568081291.255,27.344,25.391,34.180,24.902,26.367
1568081291.259,40.039,21.973,28.320,0.977,-10.742
1568081291.263,23.926,20.020,28.809,41.992,5.371
1568081291.267,11.230,25.391,35.156,74.707,30.762
1568081291.271,36.133,28.809,35.156,42.480,24.902
1568081291.274,50.293,27.344,28.809,0.977,17.578
1568081291.278,33.203,31.250,29.785,28.320,-20.020
1568081291.282,19.043,35.156,36.621,67.871,20.020
1568081291.286,26.855,36.133,34.668,46.387,74.707
1568081291.290,51.270,38.574,28.809,2.930,36.133
1568081291.294,50.293,37.109,28.809,12.207,24.414
1568081291.298,26.855,32.227,33.203,59.570,-1.465
1568081291.302,26.367,30.762,30.762,61.523,36.133
1568081291.306,48.340,28.809,30.273,15.625,106.445
1568081291.310,52.734,23.438,32.715,3.906,30.762
1568081291.314,28.809,22.949,28.320,47.363,20.996
1568081291.317,17.578,23.926,28.809,68.848,39.062
1568081291.321,40.527,21.484,30.762,27.832,34.668
1568081291.325,53.711,21.973,28.320,3.418,64.453
1568081291.329,30.762,22.949,27.832,38.086,51.270
1568081291.333,14.160,18.555,27.832,68.848,8.301
1568081291.337,29.297,13.184,24.414,35.645,-0.488
1568081291.341,46.387,15.137,23.926,-4.883,36.621
1568081291.345,41.992,26.367,28.320,19.531,-2.441
1568081291.349,25.879,32.227,27.344,66.406,-18.555
1568081291.353,28.320,26.855,19.531,58.105,18.555
1568081291.357,52.734,25.879,18.555,16.113,13.672
1568081291.360,57.129,28.809,26.855,23.438,16.113
1568081291.364,40.039,30.762,34.180,72.754,61.035
1568081291.368,37.109,30.762,34.180,83.008,53.223
1568081291.372,56.152,29.785,30.762,37.109,62.500
1568081291.376,59.082,29.297,36.133,23.438,77.637
1568081291.380,34.180,27.344,41.016,62.988,19.043
1568081291.384,19.531,25.879,39.062,80.078,5.371
1568081291.388,38.086,24.902,33.691,37.109,62.012
1568081291.392,49.805,24.902,29.297,5.859,39.551
1568081291.396,21.973,27.344,30.762,36.621,32.715
1568081291.399,5.859,30.273,32.227,71.777,33.691
1568081291.403,29.297,33.691,35.156,48.340,16.113
1568081291.407,51.270,35.645,32.227,6.348,27.344
1568081291.411,40.039,30.273,34.668,22.949,52.246
1568081291.415,17.578,28.320,40.039,64.453,7.324
1568081291.419,18.066,27.344,40.527,57.129,-20.508
1568081291.423,41.016,24.414,39.062,17.090,40.527
1568081291.427,42.969,26.367,40.039,17.090,0.488
1568081291.431,23.926,31.738,40.039,62.500,-53.711
1568081291.435,17.090,35.645,34.668,69.336,3.906
1568081291.439,39.551,37.598,33.691,20.996,58.105
1568081291.442,49.805,35.156,33.691,2.930,26.367
1568081291.446,21.484,31.250,28.809,41.992,18.066
1568081291.450,4.883,31.738,24.414,60.547,51.270
1568081291.454,20.996,30.762,24.414,14.160,51.758
1568081291.458,38.086,29.785,26.855,-12.207,43.945
1568081291.462,21.484,30.762,26.855,22.461,-1.953
1568081291.466,0.977,31.250,22.461,55.176,14.160
1568081291.470,12.207,31.738,23.926,32.715,75.195
1568081291.474,35.645,33.691,27.344,-8.301,34.180
1568081291.478,30.762,35.645,26.855,6.348,-2.441
1568081291.482,7.812,35.645,26.855,48.340,43.945
1568081291.485,10.742,33.691,25.879,45.410,83.008
1568081291.489,37.598,36.133,21.973,-0.488,47.852
1568081291.493,40.527,35.645,21.484,-11.230,10.742
1568081291.497,12.695,34.668,25.391,31.250,2.441
1568081291.501,7.812,36.621,28.320,45.898,24.414
1568081291.505,40.039,37.109,33.203,5.859,75.195
1568081291.509,53.711,36.133,32.715,-10.254,44.922
1568081291.513,31.250,33.203,26.855,31.738,29.785
1568081291.517,17.090,34.180,25.391,62.988,83.008
1568081291.521,35.156,36.621,23.438,31.738,48.340
1568081291.524,50.293,36.133,21.973,-4.395,50.293
1568081291.528,33.691,37.598,29.297,22.949,95.215
1568081291.532,15.625,37.109,32.715,62.988,57.617
1568081291.536,28.809,35.156,27.344,50.781,42.480
1568081291.540,52.734,36.133,24.414,7.812,24.902
1568081291.544,45.898,38.574,32.227,9.766,-22.949
1568081291.548,21.973,41.504,38.574,52.734,10.742
1568081291.552,20.020,33.203,33.203,57.617,23.926
1568081291.556,41.992,25.879,28.809,17.578,18.066
1568081291.560,45.410,27.344,34.668,1.953,-5.859
1568081291.564,17.090,32.715,35.645,41.992,-28.809
1568081291.567,5.371,36.621,29.785,62.012,19.043
1568081291.571,32.227,37.598,31.738,21.484,14.160
1568081291.575,50.781,35.645,27.832,-5.859,33.203
1568081291.579,27.344,30.762,21.973,20.020,9.277
1568081291.583,7.812,29.785,21.973,45.410,-27.344
1568081291.587,22.461,31.738,20.508,15.625,14.648
1568081291.591,40.527,33.691,20.996,-20.020,16.602
1568081291.595,26.855,31.250,21.484,3.906,-10.742
1568081291.599,-3.906,28.809,22.949,38.574,6.348
1568081291.603,2.441,32.715,21.973,21.484,9.766
1568081291.607,31.250,34.180,21.484,-24.414,4.395
1568081291.610,28.809,32.715,26.855,-14.648,27.832
1568081291.614,1.465,28.809,28.809,30.273,95.215
1568081291.618,8.301,37.598,38.086,48.828,89.844
1568081291.622,22.949,35.645,33.691,-3.906,38.086
1568081291.626,25.391,26.855,30.273,-18.066,30.762
1568081291.630,17.090,38.574,41.992,44.434,26.367
1568081291.634,-12.207,33.691,33.203,46.875,30.762
1568081291.638,12.695,39.062,37.598,8.789,27.832
1568081291.642,18.066,35.645,36.621,-24.902,41.504
1568081291.646,-19.531,30.762,32.715,-6.836,45.410
1568081291.649,-40.039,45.898,38.574,20.020,30.273
1568081291.653,-31.250,49.316,46.875,-12.695,17.090
1568081291.657,-20.996,42.480,42.480,-64.453,30.273
1568081291.661,-55.176,33.203,36.133,-72.266,10.742
1568081291.665,-98.145,34.668,50.293,-50.781,55.176
1568081291.669,-123.047,40.527,56.641,-87.402,36.621
1568081291.673,-130.859,37.598,52.246,-164.551,-13.672
1568081291.677,-149.414,29.785,58.594,-185.059,30.273
1568081291.681,-187.500,29.785,69.824,-155.762,76.172
1568081291.685,-208.496,31.738,68.848,-162.109,91.797
1568081291.689,-204.102,30.762,66.895,-223.633,49.316
1568081291.692,-187.988,34.668,67.383,-242.188,38.086
1568081291.696,-197.754,36.621,73.242,-192.383,62.988
1568081291.700,-217.285,32.715,71.777,-166.992,28.320
1568081291.704,-193.848,23.438,71.777,-199.219,9.766
1568081291.708,-161.621,25.879,71.777,-221.680,12.695
1568081291.712,-181.152,31.738,62.500,-192.871,32.227
1568081291.716,-203.613,24.902,63.965,-152.832,12.207
1568081291.720,-177.246,23.926,66.406,-159.180,21.484
1568081291.724,-145.996,20.508,64.941,-193.359,83.984
1568081291.728,-150.391,21.484,66.895,-177.246,35.645
1568081291.732,-166.504,27.344,69.824,-122.559,-0.977
1568081291.735,-150.879,32.227,69.336,-112.793,4.395
1568081291.739,-119.141,25.391,67.871,-153.809,-7.812
1568081291.743,-105.957,22.461,63.965,-151.855,-5.371
1568081291.747,-113.281,26.367,56.152,-94.727,8.301
1568081291.751,-114.746,27.832,49.316,-72.266,-30.762
1568081291.755,-96.680,26.855,45.898,-115.723,-5.371
1568081291.759,-75.195,31.250,45.410,-127.930,20.020
1568081291.763,-77.637,32.715,43.945,-73.730,29.785
1568081291.767,-85.449,31.250,42.480,-40.527,72.266
1568081291.771,-66.895,26.367,42.969,-69.336,77.637
1568081291.774,-38.086,14.648,51.758,-89.844,78.613
1568081291.778,-45.410,9.766,56.641,-58.594,50.781
1568081291.782,-55.664,4.883,52.734,-11.230,42.480
1568081291.786,-28.320,2.930,46.387,-5.371,-8.789
1568081291.790,6.836,10.254,39.062,-38.086,-8.301
1568081291.794,11.719,13.672,40.039,-24.902,10.742
1568081291.798,2.441,12.695,40.039,31.250,9.766
1568081291.802,4.395,9.277,40.039,40.527,48.340
1568081291.806,31.738,3.418,40.527,5.859,76.660
1568081291.810,67.383,10.742,38.086,22.461,85.938
1568081291.814,70.312,19.531,32.715,84.473,47.363
1568081291.817,52.246,13.672,26.367,98.145,24.414
1568081291.821,75.195,18.555,19.043,62.012,42.969
1568081291.825,110.352,18.066,16.602,56.152,65.918
1568081291.829,92.285,9.277,20.020,95.215,61.523
1568081291.833,78.125,14.160,18.555,134.766,37.109
1568081291.837,105.957,19.531,16.602,122.070,51.758
1568081291.841,131.836,22.949,11.230,90.332,48.340
1568081291.845,129.395,27.832,0.000,116.699,17.578
1568081291.849,112.305,28.320,-2.441,161.621,19.531
1568081291.853,115.234,32.715,-0.977,149.414,50.293
1568081291.857,142.578,33.203,-0.488,105.469,93.750
1568081291.860,139.160,31.738,-0.488,105.469,82.031
1568081291.864,113.281,37.598,-0.488,153.320,30.762
1568081291.868,114.746,39.551,0.488,164.062,18.555
1568081291.872,141.113,39.551,-4.395,118.652,40.039
1568081291.876,148.926,38.574,-9.277,106.934,69.336
1568081291.880,132.812,39.062,-2.441,151.855,29.297
1568081291.884,126.465,43.457,0.000,172.852,0.488
1568081291.888,143.066,44.434,-4.883,129.883,19.531
1568081291.892,160.645,40.527,-10.254,103.516,9.766
1568081291.896,150.391,42.480,-3.906,140.137,10.254
1568081291.899,135.254,46.387,6.348,178.223,77.148
1568081291.903,145.020,44.922,1.465,151.367,77.637
1568081291.907,164.062,44.434,1.465,115.234,41.504
1568081291.911,153.809,40.527,2.441,131.348,77.637
1568081291.915,131.348,37.598,0.977,167.480,72.266
1568081291.919,137.695,41.992,3.906,163.574,4.395
1568081291.923,158.203,41.504,6.348,123.535,9.766
1568081291.927,152.832,40.527,9.766,120.117,51.758
1568081291.931,124.023,40.039,15.137,157.715,-10.254
1568081291.935,117.188,37.109,17.090,168.945,-65.430
1568081291.939,135.254,34.668,9.277,116.211,-50.781
1568081291.942,143.555,32.715,5.859,92.773,-35.645
1568081291.946,125.488,35.156,7.324,135.742,-4.395
1568081291.950,109.863,33.691,10.254,155.273,-3.418
1568081291.954,120.605,31.250,13.672,112.305,-10.254
1568081291.958,130.371,37.109,12.207,79.590,20.020
1568081291.962,117.188,41.016,20.020,109.863,49.805
1568081291.966,96.680,36.621,32.227,148.438,21.973
1568081291.970,101.074,31.250,26.367,124.023,18.066
1568081291.974,111.816,29.297,15.625,75.195,58.594
1568081291.978,101.074,30.273,12.207,83.984,41.016
1568081291.982,85.938,34.180,16.602,126.953,33.691
1568081291.985,88.867,34.668,20.996,129.883,46.875
1568081291.989,113.281,33.203,21.973,85.938,42.969
1568081291.993,117.676,29.785,22.461,75.195,23.926
1568081291.997,93.750,26.855,26.855,121.582,9.766
1568081292.001,84.473,27.344,30.762,137.695,32.715
1568081292.005,103.516,29.785,29.297,94.727,-27.832
1568081292.009,114.746,31.250,23.438,72.754,-58.594
1568081292.013,90.332,33.203,18.066,106.934,45.410
1568081292.017,73.242,31.738,22.949,136.230,36.621
1568081292.021,84.961,32.715,29.297,98.145,7.812
1568081292.024,104.980,36.133,36.621,57.129,33.203
1568081292.028,89.355,35.156,41.992,82.031,-9.766
1568081292.032,62.988,33.203,40.039,115.234,12.695
1568081292.036,69.336,36.133,36.621,92.285,16.113
1568081292.040,91.309,34.668,29.785,45.898,-23.438
1568081292.044,84.961,29.297,22.949,48.340,17.578
1568081292.048,55.176,24.414,23.926,86.914,15.137
1568081292.052,53.711,24.902,22.949,90.820,67.383
1568081292.056,75.684,30.273,22.949,47.363,48.340
1568081292.060,83.984,35.156,28.320,39.551,21.484
1568081292.064,63.965,35.156,34.180,87.891,-4.883
1568081292.067,51.758,34.180,35.645,108.887,30.273
1568081292.071,69.824,36.133,31.738,67.871,106.934
1568081292.075,80.566,35.156,25.879,38.574,10.742
1568081292.079,59.570,37.109,24.414,68.848,18.555
1568081292.083,37.109,35.156,28.320,99.121,31.738
1568081292.087,50.781,32.715,24.414,66.406,8.789
1568081292.091,74.219,35.645,20.508,25.391,27.832
1568081292.095,63.965,37.109,27.344,46.387,44.922
1568081292.099,43.457,36.133,34.668,86.426,46.875
1568081292.103,46.387,33.691,35.645,72.266,2.930
1568081292.107,66.406,31.738,30.762,33.203,-22.461
1568081292.110,63.965,29.785,27.344,33.203,-7.812
1568081292.114,33.203,29.297,25.879,68.359,-14.648
1568081292.118,30.273,31.738,26.367,76.660,-21.973
1568081292.122,58.594,31.738,24.902,32.715,28.809
1568081292.126,64.941,32.227,23.438,15.625,36.133
1568081292.130,34.668,28.320,28.809,51.758,10.254
1568081292.134,19.531,28.320,33.691,72.266,47.363
1568081292.138,42.480,29.297,33.203,34.180,24.414
1568081292.142,55.664,23.438,28.320,7.324,8.301
1568081292.146,38.086,23.926,23.438,40.039,3.418
1568081292.149,25.391,27.832,29.297,71.289,16.113
1568081292.153,41.992,27.832,31.738,46.387,79.102
1568081292.157,62.988,26.367,26.367,10.254,-1.465
1568081292.161,52.246,27.344,27.832,27.832,-11.719
1568081292.165,24.902,25.879,31.250,65.430,26.367
1568081292.169,29.297,28.320,30.273,57.129,44.922
1568081292.173,52.734,31.250,25.879,12.207,90.820
1568081292.177,47.852,31.250,24.414,12.207,53.711
1568081292.181,28.809,31.738,28.320,59.082,14.160
1568081292.185,33.203,35.645,30.762,73.730,29.785
1568081292.189,55.664,34.668,27.832,32.715,38.086
1568081292.192,62.012,27.832,30.273,14.648,55.176
1568081292.196,37.109,24.414,33.203,56.152,62.988
1568081292.200,19.043,26.855,32.715,83.496,43.945
1568081292.204,43.457,34.180,32.715,42.969,16.113
1568081292.208,71.289,32.715,30.762,14.160,17.578
1568081292.212,53.223,31.250,28.320,44.922,49.805
1568081292.216,30.273,33.203,26.367,69.824,15.625
1568081292.220,40.039,32.715,26.367,43.945,8.301
1568081292.224,57.129,30.762,25.879,0.977,13.672
1568081292.228,47.363,30.762,29.297,16.602,12.207
1568081292.232,23.438,29.785,35.156,62.012,50.293
1568081292.235,25.391,28.809,37.109,60.547,31.738
1568081292.239,51.270,29.297,35.156,16.602,-3.418
1568081292.243,53.711,35.645,31.738,7.812,16.113
1568081292.247,34.668,39.551,28.809,53.223,73.242
1568081292.251,31.250,31.738,25.879,71.777,56.641
1568081292.255,45.898,27.344,24.414,26.855,-23.438
1568081292.259,50.781,27.344,27.344,2.441,-9.277
1568081292.263,24.414,23.438,31.250,35.645,22.461
1568081292.267,4.395,23.438,33.691,56.152,51.270
1568081292.271,24.414,26.855,37.598,23.926,-1.953
1568081292.274,44.922,31.738,37.109,-3.418,-21.484
1568081292.278,31.738,34.668,28.809,20.508,20.508
1568081292.282,14.160,36.133,26.855,61.523,42.480
1568081292.286,19.531,35.156,31.250,44.922,52.734
1568081292.290,37.598,32.227,29.785,-4.883,3.906
1568081292.294,37.109,33.203,28.809,2.441,48.340
1568081292.298,14.160,30.762,32.715,50.293,81.543
1568081292.302,13.184,26.855,31.250,54.199,62.500
1568081292.306,40.527,29.785,29.297,8.301,48.340
1568081292.310,46.387,31.738,30.762,-1.465,23.438
1568081292.314,23.438,30.273,30.762,42.969,18.555
1568081292.317,16.602,28.809,27.832,64.453,75.684
1568081292.321,34.668,30.762,22.461,20.996,100.098
1568081292.325,46.875,35.156,21.973,-6.836,101.562
1568081292.329,25.879,34.180,29.785,32.227,67.871
1568081292.333,7.812,31.738,33.691,62.988,31.250
1568081292.337,22.461,32.227,30.762,31.738,20.996
1568081292.341,48.828,33.691,34.668,0.488,-1.953
1568081292.345,40.527,32.715,41.992,27.344,31.738
1568081292.349,10.742,28.320,37.109,64.453,20.508
1568081292.353,21.973,31.250,25.879,51.758,9.277
1568081292.357,50.293,31.250,23.438,9.277,35.645
1568081292.360,47.363,28.809,29.785,14.648,21.484
1568081292.364,21.484,27.344,35.156,60.547,56.152
1568081292.368,20.020,25.391,36.621,66.406,38.086
1568081292.372,44.434,28.320,34.180,20.996,31.250
1568081292.376,46.387,30.273,34.180,6.348,14.648
1568081292.380,19.531,23.926,32.227,45.898,-0.977
1568081292.384,13.184,22.949,29.297,71.289,41.016
1568081292.388,33.203,28.320,27.832,27.832,-13.184
1568081292.392,43.945,27.344,28.320,-6.836,-72.754
1568081292.396,28.809,27.344,27.832,27.832,-41.504
1568081292.399,9.277,26.367,29.297,59.082,48.828
1568081292.403,20.996,25.879,30.273,31.738,86.914
1568081292.407,42.480,28.320,31.250,-3.906,30.273
1568081292.411,31.738,32.227,30.273,11.230,-4.395
1568081292.415,8.789,29.297,27.344,52.246,92.285
1568081292.419,13.184,24.902,27.344,45.898,109.863
1568081292.423,38.574,25.391,28.809,1.465,21.484
1568081292.427,34.180,23.926,29.297,2.441,44.434
1568081292.431,8.789,25.391,27.832,46.875,73.730
1568081292.435,6.348,25.879,25.391,63.477,62.988
1568081292.439,30.273,27.832,26.367,26.367,50.293
1568081292.442,48.828,26.855,24.414,6.348,89.355
1568081292.446,27.344,25.879,20.508,40.527,43.945
1568081292.450,6.348,27.832,19.043,63.477,21.484
1568081292.454,28.320,29.297,19.043,31.250,-6.348
1568081292.458,49.316,30.762,22.461,4.395,0.488
1568081292.462,36.133,33.203,21.973,32.715,48.828
1568081292.466,10.254,31.738,25.879,67.383,27.832
1568081292.470,16.113,28.809,29.785,43.945,46.387
1568081292.474,42.480,25.879,23.438,-0.977,-6.348
1568081292.478,36.133,26.855,20.508,11.719,18.066
1568081292.482,8.301,29.785,20.996,52.734,80.078
1568081292.485,11.719,32.715,19.043,51.758,28.809
1568081292.489,37.598,31.738,13.184,7.812,-0.977
1568081292.493,41.016,29.297,15.625,-2.930,-28.809
1568081292.497,17.090,31.250,20.996,41.504,-14.648
1568081292.501,9.766,28.320,20.508,59.082,-63.477
1568081292.505,32.715,27.344,20.020,12.207,-53.711
1568081292.509,43.945,30.273,20.020,-10.254,49.805
1568081292.513,24.902,34.180,25.391,30.273,-5.859
1568081292.517,11.230,36.621,25.879,58.105,0.000
1568081292.521,23.926,35.645,18.066,25.391,16.602
1568081292.524,43.457,34.180,17.090,-4.883,30.273
1568081292.528,38.086,33.691,21.484,27.344,68.848
1568081292.532,15.625,33.203,23.926,64.453,51.758
1568081292.536,22.949,29.785,22.949,43.945,103.516
1568081292.540,48.340,30.762,23.926,6.348,80.078
1568081292.544,41.504,30.762,25.879,13.672,-7.812
1568081292.548,14.648,28.320,26.367,51.270,-28.809
1568081292.552,17.578,29.297,25.391,54.688,-45.898
1568081292.556,45.898,28.809,24.414,15.137,16.602
1568081292.560,47.852,32.715,24.902,4.395,37.598
1568081292.564,23.438,39.551,28.320,46.875,32.227
1568081292.567,15.137,35.645,27.344,67.383,64.941
1568081292.571,33.203,28.809,21.973,20.508,47.852
1568081292.575,42.480,28.809,28.320,-6.836,19.531
1568081292.579,23.926,27.832,31.738,28.320,56.641
1568081292.583,8.301,27.344,23.926,55.664,62.500
1568081292.587,23.438,30.273,23.926,26.367,-2.930
1568081292.591,47.852,35.156,28.809,-5.371,13.184
1568081292.595,34.668,36.133,31.738,20.508,69.824
1568081292.599,8.789,32.715,36.621,60.059,73.242
1568081292.603,14.160,30.273,33.203,44.922,16.602
1568081292.607,37.598,29.297,29.785,-3.906,6.836
1568081292.610,38.574,30.273,34.668,-0.488,36.621
1568081292.614,14.160,29.785,34.180,44.434,25.391
1568081292.618,16.113,30.762,38.086,52.246,22.461
1568081292.622,42.480,34.668,43.457,6.836,-19.531
1568081292.626,50.781,33.691,37.109,-8.301,-68.359
1568081292.630,25.879,29.297,34.180,36.621,-2.441
1568081292.634,7.812,24.902,32.227,61.523,75.195
1568081292.638,30.762,26.367,31.250,22.949,46.387
1568081292.642,55.176,31.738,32.715,2.441,-18.555
1568081292.646,43.457,37.109,35.156,42.480,-33.691
1568081292.649,23.926,36.621,38.086,75.195,28.809
1568081292.653,38.086,36.621,40.039,48.340,75.195
1568081292.657,60.059,36.133,40.039,6.348,90.820
1568081292.661,48.340,36.133,38.574,26.855,63.965
1568081292.665,23.926,37.109,39.551,68.359,52.734
1568081292.669,32.227,33.691,38.574,58.105,69.336
1568081292.673,56.152,33.203,34.180,7.812,38.086
1568081292.677,49.805,34.668,34.668,0.488,31.250
1568081292.681,23.438,32.715,34.668,45.410,19.531
1568081292.685,8.301,26.367,31.250,54.199,72.754
1568081292.689,29.785,26.855,32.715,15.625,90.332
1568081292.692,40.527,29.297,39.062,-0.977,9.766
1568081292.696,17.578,29.785,35.645,32.227,-9.766
1568081292.700,7.324,32.227,31.738,55.664,58.594
1568081292.704,26.367,31.738,36.133,23.926,22.461
1568081292.708,48.828,32.715,37.598,-0.977,7.324
1568081292.712,32.715,33.691,38.086,28.320,72.754
1568081292.716,11.230,32.227,39.062,61.523,55.176
1568081292.720,20.996,27.832,41.016,37.598,1.953
1568081292.724,43.945,26.855,47.363,-1.465,6.836
1568081292.728,36.133,27.832,46.875,11.719,-1.465
1568081292.732,10.742,28.320,41.504,55.176,-27.344
1568081292.735,14.160,28.809,38.086,53.711,40.527
1568081292.739,37.109,25.879,36.133,4.395,94.727
1568081292.743,37.598,20.020,38.574,-1.953,67.871
1568081292.747,18.555,23.438,40.527,45.410,20.020
1568081292.751,15.137,26.855,40.039,61.523,-1.465
1568081292.755,32.715,21.973,35.156,12.207,10.254
1568081292.759,42.969,23.926,32.227,-10.742,79.590
1568081292.763,17.090,23.926,35.156,36.133,38.086
1568081292.767,-0.977,21.973,36.133,67.871,-15.137
1568081292.771,19.531,23.926,35.156,30.762,6.836
1568081292.774,38.574,23.438,32.715,-7.324,19.531
1568081292.778,26.367,28.320,33.691,18.066,13.672
1568081292.782,6.836,30.273,32.227,52.734,22.461
1568081292.786,13.184,30.273,33.203,37.109,19.531
1568081292.790,34.668,31.250,36.133,-0.488,-3.906
1568081292.794,23.926,25.879,35.156,3.418,49.805
1568081292.798,-4.883,23.926,32.227,45.898,59.570
1568081292.802,-2.441,24.902,37.109,50.293,11.230
1568081292.806,23.926,25.391,36.621,2.930,3.906
1568081292.810,33.691,25.879,33.691,-3.418,31.738
1568081292.814,17.578,27.832,37.109,44.434,28.320
1568081292.817,9.277,27.344,36.621,62.500,14.648
1568081292.821,35.645,23.438,35.645,25.879,18.066
1568081292.825,55.664,23.926,39.551,10.742,32.715
1568081292.829,39.062,26.855,47.363,48.828,17.578
1568081292.833,24.902,25.879,47.852,80.078,3.418
1568081292.837,42.969,26.855,39.551,50.293,10.254
1568081292.841,64.941,27.832,33.203,13.184,64.453
1568081292.845,50.781,29.785,37.109,36.621,85.449
1568081292.849,27.344,32.715,41.016,76.660,34.668
1568081292.853,30.762,29.297,40.039,66.895,30.273
1568081292.857,44.922,25.879,37.598,25.391,62.988
1568081292.860,42.480,27.344,41.992,28.320,12.695
1568081292.864,21.973,32.227,49.805,70.801,-5.859
1568081292.868,9.766,30.273,50.781,71.777,24.414
1568081292.872,34.180,32.227,43.945,25.391,-12.207
1568081292.876,46.875,32.715,34.180,12.695,-20.508
1568081292.880,21.973,26.855,34.668,49.316,7.324
1568081292.884,11.719,31.738,40.039,67.383,27.344
1568081292.888,30.762,34.668,35.156,22.949,33.203
1568081292.892,43.457,29.297,29.297,-13.184,26.367
1568081292.896,26.367,25.879,37.109,21.484,28.320
1568081292.899,9.277,25.391,41.992,62.500,-28.809
1568081292.903,25.879,25.391,36.133,39.551,-25.391
1568081292.907,50.293,22.949,34.180,0.488,23.926
1568081292.911,45.898,20.020,36.621,19.043,-11.230
1568081292.915,23.926,20.996,36.133,63.477,32.715
1568081292.919,28.809,26.367,31.250,56.152,38.086
1568081292.923,54.199,28.809,28.809,12.695,45.410
1568081292.927,57.617,32.715,36.621,16.602,103.516
1568081292.931,30.762,35.645,41.504,61.523,75.684
1568081292.935,17.578,30.273,39.551,70.312,37.109
1568081292.939,36.621,26.855,36.133,27.344,38.574
1568081292.942,42.969,24.902,38.574,12.207,76.172
1568081292.946,17.578,24.414,39.062,49.316,83.008
1568081292.950,0.000,27.344,35.645,66.895,48.340
1568081292.954,19.531,29.785,36.133,28.320,14.648
1568081292.958,40.039,34.180,33.203,-4.883,14.160
1568081292.962,25.391,36.133,33.691,24.902,33.691
1568081292.966,6.348,37.109,40.039,59.570,33.691
1568081292.970,16.602,33.691,37.109,30.762,3.906
1568081292.974,38.574,26.855,29.297,-12.695,36.133
1568081292.978,32.715,28.320,26.855,4.883,49.316
1568081292.982,16.113,32.227,27.832,51.758,35.156
1568081292.985,22.461,33.203,27.344,53.711,33.691
1568081292.989,47.852,34.180,29.785,15.137,25.391
1568081292.993,54.199,33.203,34.668,11.230,12.695
1568081292.997,33.691,31.250,39.062,58.105,24.902
1568081293.001,25.879,33.691,40.527,74.707,66.895
1568081293.005,46.875,36.621,32.715,29.297,43.457
1568081293.009,51.270,36.133,29.297,4.395,20.996
1568081293.013,26.855,36.133,33.691,41.504,12.695
1568081293.017,14.160,32.715,37.109,71.777,24.902
1568081293.021,28.809,29.785,36.133,35.645,23.438
1568081293.024,42.480,31.738,37.598,-2.930,-62.012
1568081293.028,28.809,30.762,42.480,18.555,-20.508
1568081293.032,11.719,28.809,38.574,57.617,19.043
1568081293.036,14.648,30.762,32.715,43.457,-54.688
1568081293.040,33.203,31.738,30.273,-2.441,-53.711
1568081293.044,30.273,29.785,34.180,0.488,25.391
1568081293.048,4.883,32.227,37.598,46.387,-13.672
1568081293.052,4.395,31.250,35.156,53.711,-47.363
1568081293.056,27.832,26.855,25.879,2.441,18.555
1568081293.060,32.227,25.391,22.461,-8.301,51.758
1568081293.064,13.184,25.391,32.715,42.969,-24.902
1568081293.067,3.418,25.879,38.086,62.988,-10.254
1568081293.071,28.809,25.879,38.574,20.996,44.434
1568081293.075,47.363,26.367,32.715,-1.465,49.316
1568081293.079,29.785,27.832,28.320,40.039,33.203
1568081293.083,18.555,30.762,30.762,77.148,45.410
1568081293.087,36.133,32.227,31.250,47.363,37.109
1568081293.091,58.105,35.156,30.762,9.766,-39.551
1568081293.095,49.805,31.738,31.738,30.762,-24.414
1568081293.099,29.785,29.297,36.133,70.801,15.137
1568081293.103,29.297,27.832,33.203,55.176,43.945
1568081293.107,48.340,24.902,25.391,3.418,25.879
1568081293.110,47.852,28.809,25.879,3.418,7.324
1568081293.114,19.531,35.156,25.879,40.527,43.457
1568081293.118,18.066,41.504,28.320,44.922,-9.766
1568081293.122,40.039,41.504,29.785,0.000,0.488
1568081293.126,45.898,39.062,25.391,-11.230,46.875
1568081293.130,20.508,35.645,26.855,33.203,26.367
1568081293.134,4.395,34.180,32.227,59.570,43.945
1568081293.138,24.414,35.156,33.691,18.555,38.574
1568081293.142,40.039,36.621,28.320,-11.719,37.598
1568081293.146,23.926,34.180,22.461,22.461,45.898
1568081293.149,6.348,30.762,28.320,60.547,41.504
1568081293.153,20.508,32.715,37.598,37.598,68.359
1568081293.157,44.922,35.156,35.156,0.000,97.656
1568081293.161,41.504,33.691,32.715,20.508,67.383
1568081293.165,19.043,34.668,37.109,61.035,50.293
1568081293.169,19.531,39.551,38.086,54.688,65.430
1568081293.173,41.504,33.691,36.621,11.230,87.402
1568081293.177,42.969,25.391,35.156,8.789,60.547
1568081293.181,17.090,27.832,33.203,54.199,17.090
1568081293.185,11.719,31.738,29.785,64.453,72.266
1568081293.189,35.156,33.203,26.367,16.602,66.406
1568081293.192,44.922,35.645,24.414,-0.488,26.367
1568081293.196,20.508,33.691,27.832,41.016,-1.465
1568081293.200,0.977,36.133,31.250,65.430,24.414
1568081293.204,25.391,38.086,36.621,26.855,41.504
1568081293.208,41.504,34.668,37.109,-13.672,32.227
1568081293.212,15.137,34.180,30.762,11.719,68.359
1568081293.216,-8.301,32.715,27.832,49.316,50.781
1568081293.220,3.906,27.344,29.297,34.180,43.945
1568081293.224,27.344,26.367,28.320,0.488,49.805
1568081293.228,20.996,30.273,26.367,14.648,43.945
1568081293.232,-3.418,29.297,25.879,54.199,63.965
1568081293.235,-3.906,26.367,26.855,49.805,53.711
1568081293.239,20.020,27.344,28.809,4.395,49.805
1568081293.243,24.902,32.715,36.133,-1.953,56.641
1568081293.247,7.812,38.574,36.133,46.387,9.766
1568081293.251,8.789,38.086,27.832,62.012,40.039
1568081293.255,33.691,34.180,25.879,17.578,62.012
1568081293.259,47.852,34.668,30.762,2.441,-4.883
1568081293.263,25.391,32.715,32.227,40.527,-5.859
1568081293.267,6.348,27.344,32.227,65.430,8.789
1568081293.271,33.203,30.273,37.598,35.645,42.969
1568081293.274,55.176,30.273,32.227,3.906,13.184
1568081293.278,38.086,26.367,22.949,27.344,0.488
1568081293.282,13.184,24.902,22.461,57.129,5.859
1568081293.286,18.066,27.832,24.902,38.086,-24.414
1568081293.290,42.480,28.809,26.855,-2.930,0.000
1568081293.294,37.109,24.902,26.855,-0.488,-20.996
1568081293.298,15.137,27.832,28.320,39.551,-24.414
1568081293.302,17.090,30.762,26.855,48.340,11.230
1568081293.306,42.480,31.250,32.227,9.766,37.109
1568081293.310,48.340,31.738,38.086,1.953,17.578
1568081293.314,25.391,29.785,37.109,48.340,4.883
1568081293.317,12.695,27.344,34.668,64.453,71.289
1568081293.321,33.203,33.691,32.227,19.043,89.844
1568081293.325,51.758,40.527,33.691,-1.465,32.715
1568081293.329,32.227,37.598,33.203,37.598,35.156
1568081293.333,11.230,31.250,30.273,67.871,9.277
1568081293.337,25.879,29.297,30.762,37.598,13.672
1568081293.341,49.805,34.180,31.738,-0.977,61.523
1568081293.345,36.621,33.203,30.273,20.020,59.082
1568081293.349,16.113,32.227,25.879,58.594,67.383
1568081293.353,27.832,34.180,24.902,43.457,40.039
1568081293.357,53.223,32.715,27.832,-1.465,-25.391
1568081293.360,46.875,32.227,28.320,2.441,-2.441
1568081293.364,26.367,38.086,32.227,49.805,31.738
1568081293.368,22.949,39.551,35.645,58.105,-6.836
1568081293.372,48.828,41.992,28.320,20.508,18.066
1568081293.376,70.801,39.551,23.926,16.113,30.762
1568081293.380,35.156,31.738,31.738,48.340,42.480
1568081293.384,7.812,34.668,36.621,59.082,60.547
1568081293.388,34.668,36.133,33.203,20.508,37.109
1568081293.392,48.340,29.297,33.203,-7.324,-29.785
1568081293.396,33.691,29.785,36.621,30.762,10.742
1568081293.399,20.996,33.203,39.062,71.777,82.031
1568081293.403,35.156,27.832,39.551,45.898,26.367
1568081293.407,57.129,27.344,35.645,7.324,31.738
1568081293.411,49.316,32.715,31.738,29.297,68.359
1568081293.415,28.320,32.715,31.250,69.336,63.965
1568081293.419,34.668,31.738,32.227,62.012,65.918
1568081293.423,57.617,31.738,31.738,19.531,59.082
1568081293.427,52.734,30.762,34.180,15.137,43.457
1568081293.431,28.320,30.273,38.574,62.012,49.316
1568081293.435,20.996,31.738,33.691,70.801,41.992
1568081293.439,42.969,33.203,29.785,25.391,26.367
1568081293.442,56.152,32.227,26.855,6.348,-18.555
1568081293.446,33.691,29.785,27.832,42.480,-21.484
1568081293.450,14.648,27.344,31.250,66.895,8.301
1568081293.454,32.715,26.367,28.809,25.879,36.621
1568081293.458,53.223,27.832,33.691,-2.441,-14.160
1568081293.462,39.062,29.297,39.551,33.691,-6.348
1568081293.466,21.484,32.715,34.668,67.383,45.410
1568081293.470,27.832,32.227,19.531,42.480,15.137
1568081293.474,43.945,26.367,19.043,1.953,36.621
1568081293.478,36.133,27.832,29.785,13.672,74.707
1568081293.482,12.695,26.855,31.250,53.711,59.570
1568081293.485,19.531,26.367,29.785,52.246,46.875
1568081293.489,46.875,28.320,32.715,12.207,57.129
1568081293.493,55.664,33.203,38.574,9.766,-15.625
1568081293.497,33.203,35.156,36.621,51.758,-4.883
1568081293.501,17.090,29.785,31.250,62.500,85.938
1568081293.505,39.551,31.250,29.785,21.484,29.785
1568081293.509,54.688,35.156,29.785,1.953,3.906
1568081293.513,31.738,30.762,23.926,34.668,17.090
1568081293.517,14.160,26.855,21.484,59.570,-25.879
1568081293.521,32.715,29.785,24.902,21.973,13.184
1568081293.524,49.316,33.203,24.414,-10.254,43.457
1568081293.528,36.621,30.762,27.344,23.438,12.207
1568081293.532,26.367,30.762,33.691,65.918,39.551
1568081293.536,31.250,30.273,37.598,49.805,97.656
1568081293.540,45.898,27.344,31.250,2.930,41.992
1568081293.544,40.039,24.902,21.484,9.277,-43.945
1568081293.548,16.113,23.438,23.926,54.199,-46.387
1568081293.552,20.508,26.855,28.809,54.688,39.551
1568081293.556,44.434,32.715,27.344,9.277,48.828
1568081293.560,43.457,30.273,28.809,0.000,9.766
1568081293.564,18.555,25.879,29.785,43.457,31.738
1568081293.567,9.766,27.344,25.879,62.012,18.555
1568081293.571,31.250,28.320,22.949,14.648,52.734
1568081293.575,46.875,29.785,23.926,-9.277,21.973
1568081293.579,29.297,31.250,23.438,32.715,-38.086
1568081293.583,12.207,30.762,21.484,63.477,-9.766
1568081293.587,28.320,29.785,23.926,28.320,-4.883
1568081293.591,45.410,25.391,25.391,-7.812,65.430
1568081293.595,32.715,22.461,23.926,17.090,62.012
1568081293.599,6.348,23.926,21.484,56.641,69.336
1568081293.603,9.766,24.902,21.484,42.969,56.641
1568081293.607,37.109,22.461,20.020,-3.418,-11.230
1568081293.610,34.180,21.484,18.555,-0.977,61.523
1568081293.614,8.301,23.438,21.484,45.898,79.590
1568081293.618,7.812,23.438,21.484,53.223,53.223
1568081293.622,34.668,26.367,21.484,7.324,59.082
1568081293.626,42.480,32.227,20.508,-3.418,24.902
1568081293.630,20.020,30.762,20.020,39.062,42.969
1568081293.634,7.812,25.391,24.902,59.570,63.965
1568081293.638,26.855,27.344,27.344,19.531,35.156
1568081293.642,40.527,28.809,22.949,-9.766,7.812
1568081293.646,23.438,25.879,22.949,22.461,-4.883
1568081293.649,5.859,29.297,28.320,53.223,14.160
1568081293.653,21.484,34.668,28.320,27.832,22.949
1568081293.657,40.527,31.250,22.949,-14.648,55.176
1568081293.661,37.109,37.598,32.227,14.160,74.219
1568081293.665,20.996,47.363,39.062,60.547,83.008
1568081293.669,4.395,30.762,22.949,29.297,71.289
1568081293.673,20.508,24.902,24.414,-17.090,23.926
1568081293.677,35.645,40.527,41.504,-3.418,9.277
1568081293.681,16.113,36.621,48.340,44.434,21.484
1568081293.685,-2.441,28.320,37.598,41.504,-18.066
1568081293.689,17.578,32.227,41.504,-8.789,-1.465
1568081293.692,19.531,40.039,45.410,-28.320,48.340
1568081293.696,-25.879,32.715,35.645,-6.348,72.754
1568081293.700,-47.363,24.902,46.387,7.324,10.742
1568081293.704,-37.109,46.875,52.246,-37.109,3.418
1568081293.708,-38.574,47.363,44.922,-98.145,22.949
1568081293.712,-72.266,47.363,41.504,-88.867,48.828
1568081293.716,-125.977,46.387,46.387,-77.637,34.668
1568081293.720,-153.320,39.062,46.875,-137.207,20.020
1568081293.724,-149.414,42.480,56.641,-198.242,103.027
1568081293.728,-171.387,47.852,73.730,-199.707,64.453
1568081293.732,-217.773,41.504,70.801,-185.059,29.297
1568081293.735,-222.656,31.250,68.848,-197.754,72.754
1568081293.739,-195.801,35.645,67.871,-236.816,77.148
1568081293.743,-183.105,40.039,68.359,-231.445,4.883
1568081293.747,-201.172,43.457,80.078,-179.199,-4.883
1568081293.751,-223.145,41.504,78.613,-181.152,32.227
1568081293.755,-203.613,28.809,64.453,-227.539,13.672
1568081293.759,-172.852,28.809,65.918,-223.145,36.133
1568081293.763,-174.805,36.133,72.266,-167.969,47.852
1568081293.767,-189.941,30.762,73.242,-137.207,5.859
1568081293.771,-174.805,28.320,70.801,-167.480,15.137
1568081293.774,-138.672,30.762,68.359,-188.965,71.777
1568081293.778,-129.395,30.762,63.965,-144.531,42.969
1568081293.782,-138.672,27.832,61.035,-100.098,29.785
1568081293.786,-132.812,20.996,61.035,-118.164,79.102
1568081293.790,-109.863,21.484,59.082,-159.180,8.789
1568081293.794,-105.957,21.973,60.547,-144.043,2.930
1568081293.798,-117.676,20.996,61.523,-84.961,32.715
1568081293.802,-102.051,18.555,59.082,-64.941,-9.766
1568081293.806,-64.941,19.531,53.711,-100.098,-6.836
1568081293.810,-54.688,24.902,50.781,-102.051,15.137
1568081293.814,-68.359,22.461,48.340,-42.969,-12.695
1568081293.817,-50.781,20.996,46.387,-7.324,-17.090
1568081293.821,-9.766,21.484,44.922,-35.645,-9.766
1568081293.825,19.531,20.508,40.527,-42.969,27.832
1568081293.829,15.625,13.672,44.922,10.254,-14.648
1568081293.833,-2.441,8.301,44.922,51.758,-14.160
1568081293.837,32.227,13.672,38.574,39.062,45.410
1568081293.841,79.102,13.672,39.062,28.320,18.066
1568081293.845,69.824,3.906,35.645,61.523,44.434
1568081293.849,62.012,6.348,27.832,108.887,28.320
1568081293.853,82.031,12.695,20.508,103.516,38.086
1568081293.857,105.469,17.090,10.254,60.547,40.039
1568081293.860,105.469,18.555,4.395,75.684,31.250
1568081293.864,89.355,26.367,5.371,127.930,59.570
1568081293.868,94.727,33.691,8.789,133.789,46.387
1568081293.872,118.164,28.320,8.301,88.867,37.598
1568081293.876,125.488,29.297,3.418,81.055,23.926
1568081293.880,110.352,36.621,-1.953,130.371,6.348
1568081293.884,100.586,40.527,-2.441,151.367,68.359
1568081293.888,118.652,41.992,-4.395,112.793,45.898
1568081293.892,141.602,46.387,-8.301,93.262,12.207
1568081293.896,120.605,41.504,-6.348,123.535,67.871
1568081293.899,106.445,37.598,-4.883,161.133,70.801
1568081293.903,131.348,41.016,-4.395,141.113,83.496
1568081293.907,147.461,41.992,-4.883,98.145,35.156
1568081293.911,142.090,46.875,0.000,125.977,-10.742
1568081293.915,134.277,53.223,6.836,175.293,-12.207
1568081293.919,138.184,57.129,3.418,162.598,20.996
1568081293.923,156.738,47.852,-1.953,120.117,62.988
1568081293.927,153.809,35.156,0.977,117.676,13.672
1568081293.931,129.883,36.621,7.812,159.180,34.668
1568081293.935,128.906,42.480,6.836,171.387,51.758
1568081293.939,150.391,48.340,5.371,123.535,33.691
1568081293.942,155.273,50.781,8.301,106.934,18.555
1568081293.946,129.883,49.316,11.719,152.344,30.273
1568081293.950,113.770,43.945,7.324,174.316,93.262
1568081293.954,130.859,41.504,0.488,129.395,90.820
1568081293.958,138.672,40.039,2.930,92.773,21.484
1568081293.962,120.605,40.527,9.277,123.535,7.812
1568081293.966,103.027,42.480,7.812,155.762,45.410
1568081293.970,116.699,41.992,9.766,129.395,65.918
1568081293.974,136.719,42.969,15.625,89.355,46.387
1568081293.978,117.188,41.992,16.602,97.168,27.344
1568081293.982,91.309,35.645,18.555,133.789,57.617
1568081293.985,91.309,30.762,15.137,122.070,21.973
1568081293.989,111.328,31.738,12.695,72.754,-6.836
1568081293.993,116.211,37.109,13.672,68.848,-7.324
1568081293.997,87.891,36.133,13.672,115.723,12.695
1568081294.001,79.590,32.227,20.508,131.836,56.641
1568081294.005,111.328,33.691,27.344,91.309,55.176
1568081294.009,120.117,31.250,27.344,75.195,7.324
1568081294.013,89.844,30.762,21.484,109.863,-0.488
1568081294.017,75.195,33.203,21.484,131.348,92.773
1568081294.021,84.961,29.297,28.809,86.426,126.465
1568081294.024,94.727,28.320,29.297,50.781,32.227
1568081294.028,81.543,26.855,24.902,82.031,8.301
1568081294.032,63.965,27.344,25.879,120.605,49.316
1568081294.036,72.266,29.785,22.949,98.633,19.531
1568081294.040,91.309,27.832,19.043,50.293,42.480
1568081294.044,81.055,29.785,21.484,60.059,47.852
1568081294.048,51.270,28.809,27.832,104.492,-10.742
1568081294.052,46.875,31.250,27.832,99.121,63.477
1568081294.056,68.359,32.715,22.461,50.293,71.777
1568081294.060,68.848,25.879,21.484,38.086,7.812
1568081294.064,40.527,24.902,26.855,73.242,42.969
1568081294.067,34.180,27.344,26.855,87.402,39.551
1568081294.071,56.641,26.367,19.043,43.945,20.996
1568081294.075,70.312,23.926,17.090,18.066,87.402
1568081294.079,59.082,24.902,19.043,61.523,74.707
1568081294.083,49.805,28.320,23.438,98.633,-16.113
1568081294.087,62.500,32.227,25.879,69.336,16.113
1568081294.091,80.566,29.297,27.832,38.574,-6.348
1568081294.095,70.312,24.414,28.809,60.059,-18.555
1568081294.099,49.316,25.391,31.250,98.145,23.438
1568081294.103,58.594,31.250,38.574,89.355,0.977
1568081294.107,77.637,37.109,41.992,45.898,42.969
1568081294.110,65.430,36.621,36.133,49.805,20.996
1568081294.114,38.086,31.250,29.785,89.844,-3.906
1568081294.118,35.156,27.344,29.785,88.379,1.953
1568081294.122,54.199,24.902,26.855,41.504,-2.930
1568081294.126,56.152,21.484,26.855,28.809,51.270
1568081294.130,39.062,19.531,27.832,68.359,63.965
1568081294.134,38.086,23.438,26.367,86.426,51.758
